File: Aldo/Propulsion/Datasets/Results/Best10CustomcostfunctionCombinations.csv
,Unnamed: 0,Unnamed: 0.1,Unnamed: 0.1.1,Unnamed: 0.1.1.1,Unnamed: 0.1.1.1.1,Capacity (mah),Nominal voltage (V),Cells configuration,Discharge (C),Battery height (mm),Bettry length (mm),Battery width (mm),Battery weight (g),Battery price (€),Motor name,Shaft diameter (mm),Motor diameter (mm),Motor height (mm),Magnetic poles,KV (rpm/V),Motor weight (g),No load current @10V (A),Resistance (Ohm),Motor price (€),Propeller Name,Propeller diameter (in),Propeller pitch (in),Propeller weight (g),Propeller material,Propeller price (€),Total weight (g),Total price (€),Peak rotational speed (rpm),Peak torque (Nm),Peak current (A),Peak thrust (kgf),Total thrust (kgf),Hovering rotational speed (rpm),Hovering torque (Nm),Hovering current (A),Hovering PWM,Hovering time (m),Custom cost function
100134,117,117,117,117,117,7000,3.7,1S2P,50,19.0,93.0,47.0,147.0,5.0,TMOTOR F15,1.5,14.4,13.3,,4500,7.8,,0.197,14.0,Gemfan 6030 Thick hub,6.0,3.0,5.23,Plastic,1,199.12,65.0,10881.6,0.0138081,6.50692,0.155251,0.621002,6706.65,0.0056401,2.65784,0.544313,39.5058,0.814815
100128,117,117,117,117,117,7000,3.7,1S2P,50,19.0,93.0,47.0,147.0,5.0,TMOTOR F15,1.5,14.4,13.3,,4500,7.8,,0.197,14.0,6030 Carbon Nylon,6.0,3.0,2.22,Carbon Nylon,1,187.08,65.0,10881.6,0.0138081,6.50692,0.155251,0.621002,6706.65,0.0056401,2.65784,0.544313,39.5058,0.814815
100312,117,117,117,117,117,7000,3.7,1S2P,50,19.0,93.0,47.0,147.0,5.0,EMAX ECO Micro Series 1404,1.5,18.8,19.75,9N12P,6000,8.6,1.0,0.12,13.0,Carbon Fiber 5030,5.0,3.0,2.18,Carbon Fiber,2,190.12,65.0,15658.6,0.0144597,9.08532,0.183697,0.734786,8824.67,0.00500506,3.14476,0.4995,33.3888,0.632202
100332,117,117,117,117,117,7000,3.7,1S2P,50,19.0,93.0,47.0,147.0,5.0,EMAX ECO Micro Series 1106,2.0,14.2,19.9,9N12P,6000,6.7,1.2,0.19,13.0,6030 Carbon Nylon,6.0,3.0,2.22,Carbon Nylon,1,182.68,61.0,11407.3,0.0150676,9.46724,0.169651,0.678605,6706.65,0.0056401,3.54378,0.484079,29.6294,0.569352
100338,117,117,117,117,117,7000,3.7,1S2P,50,19.0,93.0,47.0,147.0,5.0,EMAX ECO Micro Series 1106,2.0,14.2,19.9,9N12P,6000,6.7,1.2,0.19,13.0,Gemfan 6030 Thick hub,6.0,3.0,5.23,Plastic,1,194.72,61.0,11407.3,0.0150676,9.46724,0.169651,0.678605,6706.65,0.0056401,3.54378,0.484079,29.6294,0.569352
100133,117,117,117,117,117,7000,3.7,1S2P,50,19.0,93.0,47.0,147.0,5.0,TMOTOR F15,1.5,14.4,13.3,,4500,7.8,,0.197,14.0,DALPROP 6040,6.0,4.0,4.32,Nylon,1,195.48,65.0,8669.39,0.0191038,9.00238,0.160461,0.641845,5250.18,0.00755382,3.55965,0.504854,29.4973,0.516025
100136,117,117,117,117,117,7000,3.7,1S2P,50,19.0,93.0,47.0,147.0,5.0,TMOTOR F15,1.5,14.4,13.3,,4500,7.8,,0.197,14.0,KingKong 6040,6.0,4.0,3.38,Plastic,1,191.72,65.0,8669.39,0.0191038,9.00238,0.160461,0.641845,5250.18,0.00755382,3.55965,0.504854,29.4973,0.516025
37666,41,41,41,41,41,1800,7.4,2S1P,25,17.3,89.79,30.2,100.06,10.0,DYS D2812-14,3.175,28.0,12.0,,1600,22.0,,0.27,,T-Motor 5143 Ultra-Light,5.1,4.3,3.7,Poly Carbonate,1,202.86,,10484.7,0.0187248,3.13737,0.162593,0.650373,6305.09,0.00730837,1.22453,0.577203,22.0493,0.478862
37664,41,41,41,41,41,1800,7.4,2S1P,25,17.3,89.79,30.2,100.06,10.0,DYS D2812-14,3.175,28.0,12.0,,1600,22.0,,0.27,,KingKong 6040,6.0,4.0,3.38,Plastic,1,201.58,,10029.4,0.0250149,4.19129,0.211031,0.844123,5250.18,0.00755382,1.26565,0.489607,21.3328,0.457474
37661,41,41,41,41,41,1800,7.4,2S1P,25,17.3,89.79,30.2,100.06,10.0,DYS D2812-14,3.175,28.0,12.0,,1600,22.0,,0.27,,DALPROP 6040,6.0,4.0,4.32,Nylon,1,205.34,,10029.4,0.0250149,4.19129,0.211031,0.844123,5250.18,0.00755382,1.26565,0.489607,21.3328,0.457474