File: Aldo/Propulsion/Datasets/Results/Best10TotalweightCombinations.csv
,Unnamed: 0,Unnamed: 0.1,Unnamed: 0.1.1,Unnamed: 0.1.1.1,Unnamed: 0.1.1.1.1,Capacity (mah),Nominal voltage (V),Cells configuration,Discharge (C),Battery height (mm),Bettry length (mm),Battery width (mm),Battery weight (g),Battery price (€),Motor name,Shaft diameter (mm),Motor diameter (mm),Motor height (mm),Magnetic poles,KV (rpm/V),Motor weight (g),No load current @10V (A),Resistance (Ohm),Motor price (€),Propeller Name,Propeller diameter (in),Propeller pitch (in),Propeller weight (g),Propeller material,Propeller price (€),Total weight (g),Total price (€),Peak rotational speed (rpm),Peak torque (Nm),Peak current (A),Peak thrust (kgf),Total thrust (kgf),Hovering rotational speed (rpm),Hovering torque (Nm),Hovering current (A),Hovering PWM,Hovering time (m),Custom cost function
6736,6,6,6,6,6,800,7.4,2S1P,40,15.0,57.0,30.0,50.0,10.0,iFlight XING X1404 ,2.0,18.3,12.5,,3000,8.5,,0.28,17.0,Carbon Fiber 5030,5.0,3.0,2.18,Carbon Fiber,2,92.72,86.0,17508.5,0.0177779,5.58509,0.226608,0.906434,8824.67,0.00500503,1.57236,0.457002,7.63182,-0.395993
6748,6,6,6,6,6,800,7.4,2S1P,40,15.0,57.0,30.0,50.0,10.0,iFlight XING X1404 ,2.0,18.3,12.5,,3800,8.5,,0.28,17.0,Carbon Fiber 5030,5.0,3.0,2.18,Carbon Fiber,2,92.72,86.0,19196,0.0210769,8.38725,0.269403,1.07761,8824.67,0.00500508,1.9917,0.389183,6.02502,-0.443962
6732,6,6,6,6,6,800,7.4,2S1P,40,15.0,57.0,30.0,50.0,10.0,iFlight XING X1404 ,2.0,18.3,12.5,,3000,8.5,,0.28,17.0,6030 Carbon Nylon,6.0,3.0,2.22,Carbon Nylon,1,92.88,82.0,15330.2,0.0260325,8.17834,0.295719,1.18288,6706.65,0.0056401,1.77189,0.369146,6.77243,-0.373651
6820,6,6,6,6,6,800,7.4,2S1P,40,15.0,57.0,30.0,50.0,10.0,EMAX ECO Micro Series 1404,1.5,18.8,19.75,9N12P,3700,8.6,0.5,0.265,13.0,Carbon Fiber 5030,5.0,3.0,2.18,Carbon Fiber,2,93.12,70.0,19295.6,0.0212798,8.24515,0.272038,1.08815,8824.67,0.00500505,1.93926,0.39175,6.18793,-0.245029
6738,6,6,6,6,6,800,7.4,2S1P,40,15.0,57.0,30.0,50.0,10.0,iFlight XING X1404 ,2.0,18.3,12.5,,3000,8.5,,0.28,17.0,Gemfan 6030 Thick hub,6.0,3.0,5.23,Plastic,1,104.92,82.0,15330.2,0.0260325,8.17834,0.295719,1.18288,6706.65,0.0056401,1.77189,0.369146,6.77243,-0.477839
11764,11,11,11,11,11,1000,7.4,2S1P,25,14.0,70.0,36.0,70.0,10.0,EMAX ECO Micro Series 1106,2.0,14.2,19.9,9N12P,4500,6.7,0.6,0.3,13.0,Carbon Fiber 5030,5.0,3.0,2.18,Carbon Fiber,2,105.52,70.0,19498.2,0.021695,10.2235,0.277433,1.10973,8824.67,0.00500499,2.3585,0.36062,6.35997,-0.347196
11572,11,11,11,11,11,1000,7.4,2S1P,25,14.0,70.0,36.0,70.0,10.0,TMOTOR F15,1.5,14.4,13.3,,4500,7.8,,0.197,14.0,Carbon Fiber 5030,5.0,3.0,2.18,Carbon Fiber,2,109.92,74.0,21984.1,0.0270875,12.7647,0.347641,1.39056,8824.67,0.00500508,2.35859,0.327794,6.35974,-0.434661
11747,11,11,11,11,11,1000,7.4,2S1P,25,14.0,70.0,36.0,70.0,10.0,EMAX ECO Micro Series 1404,1.5,18.8,19.75,9N12P,3700,8.6,0.5,0.265,13.0,Gemfan 3052 - Flash,3.0,5.2,1.6,Poly Carbonate,1,110.8,66.0,20749.4,0.0174532,6.76246,0.17714,0.708561,11922,0.00626119,2.42598,0.522302,6.18307,-0.348785
7727,7,7,7,7,7,800,11.1,3S1P,40,23.0,52.0,30.0,72.0,18.0,iFlight XING X1404 ,2.0,18.3,12.5,,3000,8.5,,0.28,17.0,Gemfan 3052 - Flash,3.0,5.2,1.6,Poly Carbonate,1,112.4,90.0,26206.1,0.0268817,8.44515,0.274753,1.09901,11922,0.00626119,1.96701,0.407635,6.10063,-0.661388
11680,11,11,11,11,11,1000,7.4,2S1P,25,14.0,70.0,36.0,70.0,10.0,iFlight XING X1404 ,2.0,18.3,12.5,,4600,8.5,,0.28,17.0,Carbon Fiber 5030,5.0,3.0,2.18,Carbon Fiber,2,112.72,86.0,19970.3,0.0226768,10.9237,0.290196,1.16078,8824.67,0.00500508,2.411,0.350471,6.22149,-0.611167