File: Aldo/Propulsion/Datasets/Results/Best10TotalpriceCombinations.csv
,Capacity (mah),Nominal voltage (V),Cells configuration,Discharge (C),Battery height (mm),Bettry length (mm),Battery width (mm),Battery weight (g),Battery price (€),Motor name,Shaft diameter (mm),Motor diameter (mm),Motor height (mm),Magnetic poles,KV (rpm/V),Motor weight (g),No load current @10V (A),Resistance (Ohm),Motor price (€),Propeller Name,Propeller diameter (in),Propeller pitch (in),Propeller weight (g),Propeller material,Propeller price (€),Total weight (g),Total price (€),Peak rotational speed (rpm),Peak torque (Nm),Peak current (A),Peak thrust (kgf),Total thrust (kgf),Hovering rotational speed (rpm),Hovering torque (Nm),Hovering current (A),Hovering PWM,Hovering time (m),Custom cost function
1662,450,7.4,2S1P,25,11.0,56.0,31.0,28.0,8.0,TMOTOR V2207 V2.0,4.0,27.5,31.35,,1750,35.1,,0.059,14.0,Gemfan 6030 Thick hub,6.0,3.0,5.23,Plastic,1,189.32,68.0,12607,0.0181293,3.32237,0.204738,0.818951,6706.65,0.0056401,1.0336,0.526129,6.53055,-0.820355
1656,450,7.4,2S1P,25,11.0,56.0,31.0,28.0,8.0,TMOTOR V2207 V2.0,4.0,27.5,31.35,,1750,35.1,,0.059,14.0,6030 Carbon Nylon,6.0,3.0,2.22,Carbon Nylon,1,177.28,68.0,12607,0.0181293,3.32237,0.204738,0.818951,6706.65,0.0056401,1.0336,0.526129,6.53055,-0.716166
68630,3500,7.4,2S1P,60,18.8,92.8,46.5,149.0,30.0,TMOTOR F1103,1.5,14.4,14.0,,8000,5.3,,0.163,12.0,6045 plastic,6.0,4.5,6.0,Plastic,1,194.2,82.0,11493.7,0.0436696,36.5846,0.329201,1.3168,4749.42,0.0085136,7.13234,0.237331,7.36084,-1.20622
68635,3500,7.4,2S1P,60,18.8,92.8,46.5,149.0,30.0,TMOTOR F1103,1.5,14.4,14.0,,8000,5.3,,0.163,12.0,Gemfan 5050 3-Blades BN,5.0,5.0,5.0,Poly Carbonate,1,190.2,82.0,13586.4,0.041754,34.9798,0.318537,1.27415,5713.35,0.00840824,7.04408,0.251669,7.45307,-1.16885
68633,3500,7.4,2S1P,60,18.8,92.8,46.5,149.0,30.0,TMOTOR F1103,1.5,14.4,14.0,,8000,5.3,,0.163,12.0,DALPROP 6040,6.0,4.0,4.32,Nylon,1,187.48,82.0,13277.8,0.0420365,35.2164,0.357626,1.4305,5250.18,0.00755381,6.32826,0.228078,8.29612,-1.12015
68634,3500,7.4,2S1P,60,18.8,92.8,46.5,149.0,30.0,TMOTOR F1103,1.5,14.4,14.0,,8000,5.3,,0.163,12.0,Gemfan 6030 Thick hub,6.0,3.0,5.23,Plastic,1,191.12,82.0,18586.6,0.0371769,31.1452,0.424763,1.69905,6706.65,0.0056401,4.72504,0.217367,11.111,-1.06761
68636,3500,7.4,2S1P,60,18.8,92.8,46.5,149.0,30.0,TMOTOR F1103,1.5,14.4,14.0,,8000,5.3,,0.163,12.0,KingKong 6040,6.0,4.0,3.38,Plastic,1,183.72,82.0,13277.8,0.0420365,35.2164,0.357626,1.4305,5250.18,0.00755381,6.32826,0.228078,8.29612,-1.08761
68629,3500,7.4,2S1P,60,18.8,92.8,46.5,149.0,30.0,TMOTOR F1103,1.5,14.4,14.0,,8000,5.3,,0.163,12.0,Gemfan 5040 R,5.0,4.0,3.0,ABS,1,182.2,82.0,17654.2,0.0380304,31.8602,0.364708,1.45883,6908.24,0.00670332,5.61575,0.240392,9.3487,-1.04303
68638,3500,7.4,2S1P,60,18.8,92.8,46.5,149.0,30.0,TMOTOR F1103,1.5,14.4,14.0,,8000,5.3,,0.163,12.0,T-Motor 5143 Ultra-Light,5.1,4.3,3.7,Poly Carbonate,1,185.0,82.0,15753.8,0.03977,33.3176,0.349579,1.39832,6305.08,0.00730795,6.12195,0.241353,8.5757,-1.09034
68631,3500,7.4,2S1P,60,18.8,92.8,46.5,149.0,30.0,TMOTOR F1103,1.5,14.4,14.0,,8000,5.3,,0.163,12.0,Gemfan Hurricane 51499,5.1,4.99,5.2,Poly Carbonate,1,191.0,82.0,13193,0.0421141,35.2814,0.317776,1.2711,5555.01,0.00850074,7.12156,0.250702,7.37198,-1.17819