File: Aldo/Propulsion/Datasets/Results/Best10HoveringtimeCombinations.csv
,Capacity (mah),Nominal voltage (V),Cells configuration,Discharge (C),Battery height (mm),Bettry length (mm),Battery width (mm),Battery weight (g),Battery price (€),Motor name,Shaft diameter (mm),Motor diameter (mm),Motor height (mm),Magnetic poles,KV (rpm/V),Motor weight (g),No load current @10V (A),Resistance (Ohm),Motor price (€),Propeller Name,Propeller diameter (in),Propeller pitch (in),Propeller weight (g),Propeller material,Propeller price (€),Total weight (g),Total price (€),Peak rotational speed (rpm),Peak torque (Nm),Peak current (A),Peak thrust (kgf),Total thrust (kgf),Hovering rotational speed (rpm),Hovering torque (Nm),Hovering current (A),Hovering PWM,Hovering time (m),Custom cost function
68728,3500,7.4,2S1P,60,18.8,92.8,46.5,149.0,30.0,iFlight XING X1404 ,2.0,18.3,12.5,,3000,8.5,,0.28,17.0,Carbon Fiber 5030,5.0,3.0,2.18,Carbon Fiber,2,191.72,106.0,17508.5,0.0177779,5.58509,0.226608,0.906434,8824.67,0.00500503,1.57236,0.457002,33.3892,-1.0393
68730,3500,7.4,2S1P,60,18.8,92.8,46.5,149.0,30.0,iFlight XING X1404 ,2.0,18.3,12.5,,3000,8.5,,0.28,17.0,Gemfan 6030 Thick hub,6.0,3.0,5.23,Plastic,1,203.92,102.0,15330.2,0.0260325,8.17834,0.295719,1.18288,6706.65,0.0056401,1.77189,0.369146,29.6294,-1.15185
68724,3500,7.4,2S1P,60,18.8,92.8,46.5,149.0,30.0,iFlight XING X1404 ,2.0,18.3,12.5,,3000,8.5,,0.28,17.0,6030 Carbon Nylon,6.0,3.0,2.22,Carbon Nylon,1,191.88,102.0,15330.2,0.0260325,8.17834,0.295719,1.18288,6706.65,0.0056401,1.77189,0.369146,29.6294,-1.04767
68812,3500,7.4,2S1P,60,18.8,92.8,46.5,149.0,30.0,EMAX ECO Micro Series 1404,1.5,18.8,19.75,9N12P,3700,8.6,0.5,0.265,13.0,Carbon Fiber 5030,5.0,3.0,2.18,Carbon Fiber,2,192.12,90.0,19295.6,0.0212798,8.24515,0.272038,1.08815,8824.67,0.00500505,1.93926,0.39175,27.0722,-0.810293
68740,3500,7.4,2S1P,60,18.8,92.8,46.5,149.0,30.0,iFlight XING X1404 ,2.0,18.3,12.5,,3800,8.5,,0.28,17.0,Carbon Fiber 5030,5.0,3.0,2.18,Carbon Fiber,2,191.72,106.0,19196,0.0210769,8.38725,0.269403,1.07761,8824.67,0.00500508,1.9917,0.389183,26.3595,-1.24916
68725,3500,7.4,2S1P,60,18.8,92.8,46.5,149.0,30.0,iFlight XING X1404 ,2.0,18.3,12.5,,3000,8.5,,0.28,17.0,Gemfan 5040 R,5.0,4.0,3.0,ABS,1,195.0,102.0,14882.7,0.0277282,8.71107,0.264552,1.05821,6908.24,0.00670332,2.10591,0.390865,24.9299,-1.21496
68736,3500,7.4,2S1P,60,18.8,92.8,46.5,149.0,30.0,iFlight XING X1404 ,2.0,18.3,12.5,,3800,8.5,,0.28,17.0,6030 Carbon Nylon,6.0,3.0,2.22,Carbon Nylon,1,191.88,102.0,16079.9,0.0284365,11.3159,0.323491,1.29397,6706.65,0.00564011,2.2444,0.323424,23.3916,-1.23388
68742,3500,7.4,2S1P,60,18.8,92.8,46.5,149.0,30.0,iFlight XING X1404 ,2.0,18.3,12.5,,3800,8.5,,0.28,17.0,Gemfan 6030 Thick hub,6.0,3.0,5.23,Plastic,1,203.92,102.0,16079.9,0.0284365,11.3159,0.323491,1.29397,6706.65,0.00564011,2.2444,0.323424,23.3916,-1.33807
68734,3500,7.4,2S1P,60,18.8,92.8,46.5,149.0,30.0,iFlight XING X1404 ,2.0,18.3,12.5,,3000,8.5,,0.28,17.0,T-Motor 5143 Ultra-Light,5.1,4.3,3.7,Poly Carbonate,1,197.8,102.0,13888,0.0314975,9.89523,0.275819,1.10328,6305.09,0.00730837,2.29599,0.370888,22.8659,-1.30081
68836,3500,7.4,2S1P,60,18.8,92.8,46.5,149.0,30.0,EMAX ECO Micro Series 1106,2.0,14.2,19.9,9N12P,4500,6.7,0.6,0.3,13.0,Carbon Fiber 5030,5.0,3.0,2.18,Carbon Fiber,2,184.52,90.0,19498.2,0.021695,10.2235,0.277433,1.10973,8824.67,0.00500499,2.3585,0.36062,22.2599,-0.88819