File: Aldo/Propulsion/Datasets/Results/HoveringCurrentFilteredCombinations.csv
,Capacity (mah),Nominal voltage (V),Cells configuration,Discharge (C),Battery height (mm),Bettry length (mm),Battery width (mm),Battery weight (g),Motor name,Shaft diameter (mm),Motor diameter (mm),Motor height (mm),Magnetic poles,KV (rpm/V),Motor weight (g),No load current (A),Resistance (Ohm),Propeller Name,Propeller diameter (in),Propeller pitch (in),Propeller weight (g),Propeller material,Total weight (g),Peak rotational speed (rpm),Peak torque (Nm),Peak current (A),Peak thrust (kgf),Total thrust (kgf),Hovering rotational speed (rpm),Hovering torque (Nm),Hovering current (A),Hovering PWM,Hovering time (m)
1324,450,7.4,2S1P,25,11.0,56.0,31.0,28.0,TMOTOR V2208 V2.0,4.0,27.6,31.95,,1950,37.2,,0.052,Carbon Fiber 5030,5.0,3.0,2.18,Carbon Fiber,185.52,14180.8,0.0120369,2.45797,0.152462,0.609849,8824.67,0.00500508,1.02205,0.618732,6.60435
2172,450,11.1,3S1P,25,15.0,56.0,31.0,45.0,TMOTOR P2207 V2.0,4.0,28.1,31.0,,1750,33.9,,0.0612,6030 Carbon Nylon,6.0,3.0,2.22,Carbon Nylon,189.48,18687.9,0.0375527,6.88189,0.429127,1.71651,6706.65,0.0056401,1.0336,0.350957,6.53055
2368,450,11.1,3S1P,75,22.5,68.0,17.5,57.0,DYS D2225-12,3.175,22.0,25.0,,2000,32.0,,0.143,Carbon Fiber 5030,5.0,3.0,2.18,Carbon Fiber,193.72,20742.9,0.0243261,5.09478,0.31166,1.24664,8824.67,0.00500508,1.04826,0.411012,6.43924
3040,450,11.1,3S1P,75,22.5,68.0,17.5,57.0,TMOTOR V2207 V2.0,4.0,27.5,31.35,,1750,35.1,,0.059,Carbon Fiber 5030,5.0,3.0,2.18,Carbon Fiber,206.12,19032.5,0.020746,3.8019,0.265105,1.06042,8824.67,0.00500508,0.917228,0.45917,7.35913
4712,800,7.4,2S1P,40,15.0,57.0,30.0,50.0,DYS D2225-12,3.175,22.0,25.0,,2000,32.0,,0.143,KingKong 6040,6.0,4.0,3.38,Plastic,191.52,12536.1,0.0377956,7.91589,0.320992,1.28397,5250.18,0.00755382,1.58207,0.385315,7.58501
5252,800,7.4,2S1P,40,15.0,57.0,30.0,50.0,TMOTOR V2306.5 V2.0,4.0,28.6,30.45,,1950,33.2,,0.067,KingKong 6040,6.0,4.0,3.38,Plastic,196.32,13304.3,0.0421921,8.61579,0.358971,1.43589,5250.18,0.00755382,1.54252,0.377804,7.7795
5290,800,7.4,2S1P,40,15.0,57.0,30.0,50.0,TMOTOR V2307 V2.0,4.0,28.6,30.95,,2550,35.5,,0.0415,T-Motor 5143 Ultra-Light,5.1,4.3,3.7,Poly Carbonate,206.8,17504.3,0.0483291,12.9056,0.426159,1.70464,6305.09,0.00730837,1.95159,0.345078,6.14882
5333,800,7.4,2S1P,40,15.0,57.0,30.0,50.0,TMOTOR P2505,4.0,30.4,28.8,,1850,31.25,,0.069,DALPROP 6040,6.0,4.0,4.32,Nylon,192.28,12728.6,0.0388765,7.5316,0.330323,1.32129,5250.18,0.00755382,1.46341,0.39715,8.20001
5396,800,7.4,2S1P,40,15.0,57.0,30.0,50.0,TMOTOR V2207 V2.0,4.0,27.5,31.35,,1950,35.2,,0.05,KingKong 6040,6.0,4.0,3.38,Plastic,204.32,13559.9,0.0437035,8.92441,0.372042,1.48817,5250.18,0.00755382,1.54252,0.374261,7.7795
5749,800,11.1,3S1P,40,23.0,52.0,30.0,72.0,DYS D2812-14,3.175,28.0,12.0,,1600,22.0,,0.27,Gemfan 5040 R,5.0,4.0,3.0,ABS,172.0,15576.5,0.0301667,5.05448,0.288211,1.15284,6908.24,0.00670332,1.12315,0.416298,10.6842
6536,850,11.1,3S1P,45,22.2,60.0,30.4,76.0,DYS D2812-14,3.175,28.0,12.0,,1600,22.0,,0.27,KingKong 6040,6.0,4.0,3.38,Plastic,177.52,14279.2,0.048089,8.05739,0.410011,1.64004,5250.18,0.00755382,1.26565,0.326405,10.0738
8876,1000,7.4,2S1P,25,14.0,70.0,36.0,70.0,DYS D2812-14,3.175,28.0,12.0,,1600,22.0,,0.27,KingKong 6040,6.0,4.0,3.38,Plastic,171.52,10029.4,0.0250149,4.19129,0.211031,0.844123,5250.18,0.00755382,1.26565,0.489607,11.8516
11208,1050,11.1,3S1P,45,25.0,75.0,20.0,85.0,DYS D2812-14,3.175,28.0,12.0,,1600,22.0,,0.27,6030 Carbon Nylon,6.0,3.0,2.22,Carbon Nylon,181.88,15773.6,0.0274427,4.59806,0.312005,1.24802,6706.65,0.0056401,0.945009,0.400613,16.6665
11996,1050,11.1,3S1P,75,19.0,71.0,36.0,98.0,DYS D2812-14,3.175,28.0,12.0,,1600,22.0,,0.27,KingKong 6040,6.0,4.0,3.38,Plastic,199.52,14279.2,0.048089,8.05739,0.410011,1.64004,5250.18,0.00755382,1.26565,0.326405,12.4442
14814,1300,7.4,2S1P,25,17.0,70.0,35.0,88.0,TMOTOR F15,1.5,14.4,13.3,,4500,7.8,,0.197,Gemfan 6030 Thick hub,6.0,3.0,5.23,Plastic,140.12,18264.1,0.0359923,16.961,0.411013,1.64405,6706.65,0.0056401,2.65784,0.272157,7.3368
17148,1300,11.1,3S1P,45,22.6,72.0,36.5,119.0,TMOTOR F15,1.5,14.4,13.3,,4500,7.8,,0.197,6030 Carbon Nylon,6.0,3.0,2.22,Carbon Nylon,159.08,24350.9,0.061278,28.8766,0.705827,2.82331,6706.64,0.00563998,2.65772,0.181436,7.33711
18714,1300,11.1,3s1p,75,24.5,72.0,36.0,125.0,TMOTOR F15,1.5,14.4,13.3,,4500,7.8,,0.197,Gemfan 6030 Thick hub,6.0,3.0,5.23,Plastic,177.12,24350.9,0.061278,28.8766,0.705827,2.82331,6706.64,0.00563998,2.65772,0.181436,7.33711
21048,1300,14.8,4S1P,75,32.0,72.0,36.0,160.0,TMOTOR F15,1.5,14.4,13.3,,4500,7.8,,0.197,6030 Carbon Nylon,6.0,3.0,2.22,Carbon Nylon,200.08,29680.8,0.0883756,41.646,1.02401,4.09604,6706.65,0.0056401,2.65784,0.136078,7.3368
23394,1400,11.1,3S1P,50,19.5,85.0,35.0,131.0,TMOTOR F15,1.5,14.4,13.3,,4500,7.8,,0.197,Gemfan 6030 Thick hub,6.0,3.0,5.23,Plastic,183.12,24350.9,0.061278,28.8766,0.705827,2.82331,6706.64,0.00563998,2.65772,0.181436,7.9015
24953,1550,7.4,2S1P,25,17.0,90.0,30.0,102.0,TMOTOR F15,1.5,14.4,13.3,,4500,7.8,,0.197,DALPROP 6040,6.0,4.0,4.32,Nylon,150.48,13980.7,0.0462457,21.7928,0.394045,1.57618,5250.18,0.00755382,3.55965,0.252427,6.53154
25736,1550,11.1,3S1P,25,24.0,91.0,30.0,142.0,TMOTOR F15,1.5,14.4,13.3,,4500,7.8,,0.197,KingKong 6040,6.0,4.0,3.38,Plastic,186.72,18266.6,0.0758423,35.7398,0.651433,2.60573,5250.18,0.00755382,3.55965,0.168285,6.53154
26519,1550,11.1,3S1P,45,25.0,72.0,36.5,128.0,TMOTOR F15,1.5,14.4,13.3,,4500,7.8,,0.197,Gemfan 3052 - Flash,3.0,5.2,1.6,Poly Carbonate,165.6,32871.5,0.0408818,19.2651,0.420695,1.68278,11922,0.00626119,2.95052,0.291043,7.87998
28068,1550,11.1,3S1P,75,27.5,72.0,36.0,136.0,TMOTOR F15,1.5,14.4,13.3,,4500,7.8,,0.197,6030 Carbon Nylon,6.0,3.0,2.22,Carbon Nylon,176.08,24350.9,0.061278,28.8766,0.705827,2.82331,6706.64,0.00563998,2.65772,0.181436,8.74809
31084,1550,14.8,4S1P,75,36.0,72.0,36.0,176.0,TMOTOR F1203,2.0,15.5,14.05,,7000,4.45,,0.198,Carbon Fiber 5030,5.0,3.0,2.18,Carbon Fiber,202.52,35792.6,0.0667401,48.9231,0.869159,3.47663,8824.67,0.00500508,3.66892,0.134264,6.33702
32750,1800,7.4,2S1P,25,17.3,89.79,30.2,100.06,TMOTOR F15,1.5,14.4,13.3,,4500,7.8,,0.197,6045 plastic,6.0,4.5,6.0,Plastic,155.26,12377.4,0.0500836,23.6013,0.378392,1.51357,4749.42,0.0085136,4.01194,0.24943,6.72991
33420,1800,11.1,3S1P,25,26.0,93.0,30.0,156.0,TMOTOR F1203,2.0,15.5,14.05,,7000,4.45,,0.198,6030 Carbon Nylon,6.0,3.0,2.22,Carbon Nylon,182.68,22759.5,0.0540758,39.6396,0.621606,2.48643,6706.65,0.00564011,4.13441,0.160064,6.53055
33536,1800,11.1,3S1P,25,26.0,93.0,30.0,156.0,TMOTOR F15,1.5,14.4,13.3,,4500,7.8,,0.197,KingKong 6040,6.0,4.0,3.38,Plastic,200.72,18266.6,0.0758423,35.7398,0.651433,2.60573,5250.18,0.00755382,3.55965,0.168285,7.58501
34313,1800,11.1,3S1P,25,26.0,93.0,30.0,156.0,TMOTOR F15,1.5,14.4,13.3,,4500,7.8,,0.197,DALPROP 6040,6.0,4.0,4.32,Nylon,204.48,18266.6,0.0758423,35.7398,0.651433,2.60573,5250.18,0.00755382,3.55965,0.168285,7.58501
35088,1800,11.1,3S1P,45,20.8,106.0,35.5,158.0,TMOTOR F15,1.5,14.4,13.3,,4500,7.8,,0.197,6030 Carbon Nylon,6.0,3.0,2.22,Carbon Nylon,198.08,24350.9,0.061278,28.8766,0.705827,2.82331,6706.64,0.00563998,2.65772,0.181436,10.1591
35868,1800,11.1,3S1P,75,19.3,105.0,35.0,159.0,TMOTOR F15,1.5,14.4,13.3,,4500,7.8,,0.197,6030 Carbon Nylon,6.0,3.0,2.22,Carbon Nylon,199.08,24350.9,0.061278,28.8766,0.705827,2.82331,6706.64,0.00563998,2.65772,0.181436,10.1591
36648,1800,11.1,3S1P,75,23.0,105.0,35.0,160.0,TMOTOR F15,1.5,14.4,13.3,,4500,7.8,,0.197,6030 Carbon Nylon,6.0,3.0,2.22,Carbon Nylon,200.08,24350.9,0.061278,28.8766,0.705827,2.82331,6706.64,0.00563998,2.65772,0.181436,10.1591
40451,2200,7.4,2S1P,25,18.53,106.0,34.0,135.6,TMOTOR F1203,2.0,15.5,14.05,,7000,4.45,,0.198,Gemfan 3052 - Flash,3.0,5.2,1.6,Poly Carbonate,159.8,25615.7,0.0257722,18.892,0.263232,1.05293,11922,0.00626116,4.58965,0.352958,7.1901
40553,2200,7.4,2S1P,25,18.53,106.0,34.0,135.6,TMOTOR F15,1.5,14.4,13.3,,4500,7.8,,0.197,DALPROP 6040,6.0,4.0,4.32,Nylon,184.08,13980.7,0.0462457,21.7928,0.394045,1.57618,5250.18,0.00755382,3.55965,0.252427,9.27057
41226,2200,7.4,2S1P,25,21.0,84.0,32.0,134.0,TMOTOR F1203,2.0,15.5,14.05,,7000,4.45,,0.198,Gemfan 6030 Thick hub,6.0,3.0,5.23,Plastic,172.72,17611.8,0.0336501,24.6668,0.383848,1.53539,6706.65,0.0056401,4.13441,0.240095,7.98179
41331,2200,7.4,2S1P,25,21.0,84.0,32.0,134.0,TMOTOR F15,1.5,14.4,13.3,,4500,7.8,,0.197,Gemfan Hurricane 51499,5.1,4.99,5.2,Poly Carbonate,186.0,13906.4,0.0464235,21.8766,0.350847,1.40339,5555.01,0.00850074,4.00588,0.27346,8.23789
42001,2200,7.4,2S1P,50,20.0,87.2,34.0,130.0,TMOTOR F1203,2.0,15.5,14.05,,7000,4.45,,0.198,Gemfan 5040 R,5.0,4.0,3.0,ABS,159.8,16748.5,0.0344998,25.2897,0.330327,1.32131,6908.24,0.00670342,4.91394,0.264845,6.71559
42109,2200,7.4,2S1P,50,20.0,87.2,34.0,130.0,TMOTOR F15,1.5,14.4,13.3,,4500,7.8,,0.197,Gemfan 5040 R,5.0,4.0,3.0,ABS,173.2,17563.5,0.0376694,17.7513,0.361191,1.44476,6908.24,0.00670332,3.15887,0.291549,10.4468
42119,2200,7.4,2S1P,50,20.0,87.2,34.0,130.0,TMOTOR F15,1.5,14.4,13.3,,4500,7.8,,0.197,Gemfan 3052 - Flash,3.0,5.2,1.6,Poly Carbonate,167.6,23859.3,0.0225986,10.6494,0.230327,0.921307,11922,0.00626119,2.95052,0.436564,11.1845
54485,3500,7.4,2S1P,60,18.8,92.8,46.5,149.0,TMOTOR F1203,2.0,15.5,14.05,,7000,4.45,,0.198,DALPROP 6040,6.0,4.0,4.32,Nylon,184.08,12665.2,0.0385189,28.2358,0.327235,1.30894,5250.18,0.00755382,5.53724,0.249513,9.48126
54579,3500,7.4,2S1P,60,18.8,92.8,46.5,149.0,TMOTOR F1103,1.5,14.4,14.0,,8000,5.3,,0.163,Gemfan Hurricane 51499,5.1,4.99,5.2,Poly Carbonate,191.0,13193,0.0421141,35.2814,0.317776,1.2711,5555.01,0.00850074,7.12156,0.250702,7.37198
54589,3500,7.4,2S1P,60,18.8,92.8,46.5,149.0,TMOTOR F15,1.5,14.4,13.3,,4500,7.8,,0.197,Gemfan 5040 R,5.0,4.0,3.0,ABS,192.2,17563.5,0.0376694,17.7513,0.361191,1.44476,6908.24,0.00670332,3.15887,0.291549,16.6199
54599,3500,7.4,2S1P,60,18.8,92.8,46.5,149.0,TMOTOR F15,1.5,14.4,13.3,,4500,7.8,,0.197,Gemfan 3052 - Flash,3.0,5.2,1.6,Poly Carbonate,186.6,23859.3,0.0225986,10.6494,0.230327,0.921307,11922,0.00626119,2.95052,0.436564,17.7935
92025,7000,3.7,1S2P,50,19.0,93.0,47.0,147.0,TMOTOR F1103,1.5,14.4,14.0,,8000,5.3,,0.163,Quanum Carbon Fiber Propeller 6045 Self-Locking,6.0,4.5,6.78,Carbon Fiber,195.32,7569.7,0.0201662,16.8944,0.150129,0.600515,4749.42,0.0085136,7.13234,0.474662,14.7217
92036,7000,3.7,1S2P,50,19.0,93.0,47.0,147.0,TMOTOR F15,1.5,14.4,13.3,,4500,7.8,,0.197,KingKong 6040,6.0,4.0,3.38,Plastic,191.72,8669.39,0.0191038,9.00238,0.160461,0.641845,5250.18,0.00755382,3.55965,0.504854,29.4973