File: Aldo/Propulsion/Datasets/Results/HoveringTimeFilteredCombinations.csv
,Unnamed: 0,Unnamed: 0.1,Unnamed: 0.1.1,Unnamed: 0.1.1.1,Unnamed: 0.1.1.1.1,Capacity (mah),Nominal voltage (V),Cells configuration,Discharge (C),Battery height (mm),Bettry length (mm),Battery width (mm),Battery weight (g),Battery price (€),Motor name,Shaft diameter (mm),Motor diameter (mm),Motor height (mm),Magnetic poles,KV (rpm/V),Motor weight (g),No load current @10V (A),Resistance (Ohm),Motor price (€),Propeller Name,Propeller diameter (in),Propeller pitch (in),Propeller weight (g),Propeller material,Propeller price (€),Total weight (g),Total price (€),Peak rotational speed (rpm),Peak torque (Nm),Peak current (A),Peak thrust (kgf),Total thrust (kgf),Hovering rotational speed (rpm),Hovering torque (Nm),Hovering current (A),Hovering PWM,Hovering time (m)
100134,117,117,117,117,117,7000,3.7,1S2P,50,19.0,93.0,47.0,147.0,5.0,TMOTOR F15,1.5,14.4,13.3,,4500,7.8,,0.197,14.0,Gemfan 6030 Thick hub,6.0,3.0,5.23,Plastic,1,199.12,65.0,10881.6,0.0138081,6.50692,0.155251,0.621002,6706.65,0.0056401,2.65784,0.544313,39.5058
100117,117,117,117,117,117,7000,3.7,1S2P,50,19.0,93.0,47.0,147.0,5.0,TMOTOR F1103,1.5,14.4,14.0,,8000,5.3,,0.163,12.0,Gemfan 5040 R,5.0,4.0,3.0,ABS,1,180.2,57.0,11325.3,0.0167284,14.0143,0.158301,0.633205,6908.22,0.00670081,5.61159,0.480599,18.7113
64803,69,69,69,69,69,3500,7.4,2S1P,60,18.8,92.8,46.5,149.0,10.0,iFlight XING X1404 ,2.0,18.3,12.5,,3800,8.5,,0.28,17.0,Gemfan Hurricane 51499,5.1,4.99,5.2,Poly Carbonate,1,203.8,82.0,12346.8,0.0372534,14.8244,0.28054,1.12216,5555.01,0.00850074,3.38274,0.325542,15.52
29418,31,31,31,31,31,1550,7.4,2S1P,25,17.0,90.0,30.0,102.0,10.0,EMAX ECO Micro Series 1407,2.0,18.8,31.2,9N12P,2800,13.7,0.7,0.18,13.0,Gemfan 6030 Thick hub,6.0,3.0,5.23,Plastic,1,177.72,66.0,16374.2,0.0294069,8.62256,0.334713,1.33885,6706.65,0.0056401,1.65376,0.363907,14.0588
64903,69,69,69,69,69,3500,7.4,2S1P,60,18.8,92.8,46.5,149.0,10.0,EMAX ECO Micro Series 1106,2.0,14.2,19.9,9N12P,4500,6.7,0.6,0.3,13.0,Gemfan 5050 3-Blades BN,5.0,5.0,5.0,Poly Carbonate,1,195.8,66.0,12044.3,0.0334119,15.745,0.253976,1.0159,5713.35,0.00840824,3.96229,0.332206,13.2499
50142,53,53,53,53,53,2200,7.4,2S1P,50,20.0,87.2,34.0,130.0,10.0,EMAX ECO Micro Series 1106,2.0,14.2,19.9,9N12P,4500,6.7,0.6,0.3,13.0,Gemfan 6030 Thick hub,6.0,3.0,5.23,Plastic,1,177.72,66.0,15796,0.0275146,12.9659,0.312836,1.25135,6706.65,0.0056401,2.65784,0.309151,12.4161
31343,33,33,33,33,33,1550,11.1,3S1P,45,25.0,72.0,36.5,128.0,18.0,iFlight XING X1404 ,2.0,18.3,12.5,,3000,8.5,,0.28,17.0,Gemfan 3052 - Flash,3.0,5.2,1.6,Poly Carbonate,1,168.4,90.0,26206.1,0.0268817,8.44515,0.274753,1.09901,11922,0.00626119,1.96701,0.407635,11.82
43168,46,46,46,46,46,1800,11.1,3S1P,75,23.0,105.0,35.0,160.0,18.0,iFlight XING X1404 ,2.0,18.3,12.5,,4600,8.5,,0.28,17.0,Carbon Fiber 5030,5.0,3.0,2.18,Carbon Fiber,2,202.72,94.0,26805.6,0.039092,18.831,0.504699,2.0188,8824.67,0.00500507,2.411,0.233647,11.1987
28468,29,29,29,29,29,1400,11.1,3S1P,50,19.5,85.0,35.0,131.0,18.0,EMAX ECO Micro Series 1404,1.5,18.8,19.75,9N12P,3700,8.6,0.5,0.265,13.0,Carbon Fiber 5030,5.0,3.0,2.18,Carbon Fiber,2,174.12,78.0,26515.1,0.0383117,14.8444,0.494464,1.97785,8824.67,0.00500508,1.93928,0.261167,10.8287
49069,52,52,52,52,52,2200,7.4,2S1P,25,21.0,84.0,32.0,134.0,10.0,iFlight XING X1404 ,2.0,18.3,12.5,,4600,8.5,,0.28,17.0,Gemfan 5040 R,5.0,4.0,3.0,ABS,1,180.0,82.0,15497.8,0.0298854,14.3961,0.28548,1.14192,6908.24,0.00670332,3.22906,0.325125,10.2197
29425,31,31,31,31,31,1550,7.4,2S1P,25,17.0,90.0,30.0,102.0,10.0,EMAX ECO Micro Series 1407,2.0,18.8,31.2,9N12P,3300,13.7,0.9,0.148,13.0,Gemfan 5040 R,5.0,4.0,3.0,ABS,1,168.8,66.0,17861.3,0.0388597,13.4289,0.372791,1.49116,6908.24,0.00670332,2.3165,0.329223,10.0367
6178,6,6,6,6,6,800,7.4,2S1P,40,15.0,57.0,30.0,50.0,10.0,DYS D2812-14,3.175,28.0,12.0,,1600,22.0,,0.27,,T-Motor 5143 Ultra-Light,5.1,4.3,3.7,Poly Carbonate,1,152.8,,10484.7,0.0187248,3.13737,0.162593,0.650373,6305.09,0.00730837,1.22453,0.577203,9.79968
41266,44,44,44,44,44,1800,11.1,3S1P,45,20.8,106.0,35.5,158.0,18.0,EMAX ECO Micro Series 1404,1.5,18.8,19.75,9N12P,3700,8.6,0.5,0.265,13.0,T-Motor 5143 Ultra-Light,5.1,4.3,3.7,Poly Carbonate,1,207.2,74.0,19227.1,0.0574953,22.2773,0.508415,2.03366,6305.09,0.00730837,2.83173,0.221125,9.53482
49157,52,52,52,52,52,2200,7.4,2S1P,25,21.0,84.0,32.0,134.0,10.0,EMAX ECO Micro Series 1106,2.0,14.2,19.9,9N12P,4500,6.7,0.6,0.3,13.0,DALPROP 6040,6.0,4.0,4.32,Nylon,1,178.08,66.0,11800.4,0.0337952,15.9256,0.286497,1.14599,5250.18,0.00755368,3.55953,0.301968,9.2709
47872,51,51,51,51,51,2200,7.4,2S1P,25,18.53,106.0,34.0,135.6,10.0,TMOTOR F1203,2.0,15.5,14.05,,7000,4.45,,0.198,15.0,Carbon Fiber 5030,5.0,3.0,2.18,Carbon Fiber,2,162.12,78.0,22669.9,0.0286716,21.0174,0.36831,1.47324,8824.67,0.00500508,3.66891,0.268529,8.99449
31248,33,33,33,33,33,1550,11.1,3S1P,45,25.0,72.0,36.5,128.0,18.0,TMOTOR F15,1.5,14.4,13.3,,4500,7.8,,0.197,14.0,6030 Carbon Nylon,6.0,3.0,2.22,Carbon Nylon,1,168.08,78.0,24350.9,0.061278,28.8766,0.705827,2.82331,6706.64,0.00563998,2.65772,0.181436,8.74809
28452,29,29,29,29,29,1400,11.1,3S1P,50,19.5,85.0,35.0,131.0,18.0,EMAX ECO Micro Series 1407,2.0,18.8,31.2,9N12P,4100,13.7,1.1,0.102,13.0,6030 Carbon Nylon,6.0,3.0,2.22,Carbon Nylon,1,194.68,74.0,29661.2,0.0882675,37.8977,1.02274,4.09095,6706.65,0.0056401,2.42158,0.169619,8.67201
22537,23,23,23,23,23,1300,11.1,3s1p,75,24.5,72.0,36.0,125.0,18.0,EMAX ECO Micro Series 1407,2.0,18.8,31.2,9N12P,3300,13.7,0.9,0.148,13.0,Gemfan 5040 R,5.0,4.0,3.0,ABS,1,191.8,74.0,24690.9,0.0707381,24.4453,0.685233,2.74093,6908.24,0.00670332,2.3165,0.219482,8.41787
48171,51,51,51,51,51,2200,7.4,2S1P,25,18.53,106.0,34.0,135.6,10.0,EMAX ECO Micro Series 1106,2.0,14.2,19.9,9N12P,4500,6.7,0.6,0.3,13.0,Gemfan Hurricane 51499,5.1,4.99,5.2,Poly Carbonate,1,183.2,66.0,11733.2,0.0339009,15.9754,0.254904,1.01961,5555.01,0.00850074,4.00588,0.329218,8.23789
23488,24,24,24,24,24,1300,14.8,4s1p,45,29.8,72.0,36.5,154.0,27.0,iFlight XING X1404 ,2.0,18.3,12.5,,4600,8.5,,0.28,17.0,Carbon Fiber 5030,5.0,3.0,2.18,Carbon Fiber,2,196.72,103.0,32816.1,0.0568367,27.3788,0.73826,2.95304,8824.67,0.00500508,2.411,0.175236,8.08792
48852,52,52,52,52,52,2200,7.4,2S1P,25,21.0,84.0,32.0,134.0,10.0,TMOTOR F1203,2.0,15.5,14.05,,7000,4.45,,0.198,15.0,6030 Carbon Nylon,6.0,3.0,2.22,Carbon Nylon,1,160.68,74.0,17611.8,0.0336501,24.6668,0.383848,1.53539,6706.65,0.0056401,4.13441,0.240095,7.98179
47968,51,51,51,51,51,2200,7.4,2S1P,25,18.53,106.0,34.0,135.6,10.0,TMOTOR F1103,1.5,14.4,14.0,,8000,5.3,,0.163,12.0,Carbon Fiber 5030,5.0,3.0,2.18,Carbon Fiber,2,165.52,66.0,24106.8,0.0321238,26.912,0.413418,1.65367,8824.67,0.00500508,4.19304,0.241426,7.87018
6620,6,6,6,6,6,800,7.4,2S1P,40,15.0,57.0,30.0,50.0,10.0,TMOTOR V2306 V2.0,4.0,27.9,30.3,,1950,32.0,,0.064,14.0,KingKong 6040,6.0,4.0,3.38,Plastic,1,191.52,70.0,13348.2,0.0424497,8.66838,0.361198,1.44479,5250.18,0.00755382,1.54252,0.377179,7.7795
40109,43,43,43,43,43,1800,11.1,3S1P,25,26.0,93.0,30.0,156.0,18.0,TMOTOR F15,1.5,14.4,13.3,,4500,7.8,,0.197,14.0,DALPROP 6040,6.0,4.0,4.32,Nylon,1,204.48,78.0,18266.6,0.0758423,35.7398,0.651433,2.60573,5250.18,0.00755382,3.55965,0.168285,7.58501
38301,41,41,41,41,41,1800,7.4,2S1P,25,17.3,89.79,30.2,100.06,10.0,EMAX ECO Micro Series 1407,2.0,18.8,31.2,9N12P,4100,13.7,1.1,0.102,13.0,Quanum Carbon Fiber Propeller 6045 Self-Locking,6.0,4.5,6.78,Carbon Fiber,2,181.98,70.0,15955.3,0.0801131,34.3967,0.6099,2.4396,4749.42,0.0085136,3.65532,0.206924,7.38649
19638,20,20,20,20,20,1300,11.1,3S1P,25,24.0,70.0,35.0,115.0,18.0,EMAX ECO Micro Series 1106,2.0,14.2,19.9,9N12P,4500,6.7,0.6,0.3,13.0,Gemfan 6030 Thick hub,6.0,3.0,5.23,Plastic,1,162.72,74.0,20807.4,0.0458093,21.5871,0.525168,2.10067,6706.65,0.0056401,2.65784,0.206101,7.33679
9684,9,9,9,9,9,850,14.8,4S1P,45,29.0,60.0,31.0,99.0,27.0,iFlight XING X1404 ,2.0,18.3,12.5,,3000,8.5,,0.28,17.0,6030 Carbon Nylon,6.0,3.0,2.22,Carbon Nylon,1,141.88,99.0,26063,0.0694862,21.8297,0.802005,3.20802,6706.65,0.0056401,1.77189,0.184573,7.1957
14660,15,15,15,15,15,1050,11.1,3S1P,75,19.0,71.0,36.0,98.0,18.0,EMAX ECO Micro Series 1407,2.0,18.8,31.2,9N12P,2800,13.7,0.7,0.18,13.0,KingKong 6040,6.0,4.0,3.38,Plastic,1,166.32,74.0,19011.7,0.081664,23.9451,0.702279,2.80911,5250.18,0.00755382,2.21489,0.204842,7.11095
10728,10,10,10,10,10,900,11.1,3S1P,45,19.5,52.0,33.5,80.0,18.0,EMAX ECO Micro Series 1407,2.0,18.8,31.2,9N12P,3300,13.7,0.9,0.148,13.0,6030 Carbon Nylon,6.0,3.0,2.22,Carbon Nylon,1,143.68,74.0,25426.5,0.0663795,22.9391,0.765579,3.06232,6706.65,0.0056401,1.94908,0.209079,6.92634
30274,32,32,32,32,32,1550,11.1,3S1P,25,24.0,91.0,30.0,142.0,18.0,TMOTOR F15,1.5,14.4,13.3,,4500,7.8,,0.197,14.0,T-Motor 5143 Ultra-Light,5.1,4.3,3.7,Poly Carbonate,1,188.0,78.0,21192.5,0.0688384,32.4393,0.610499,2.44199,6305.08,0.00730798,3.44363,0.187344,6.7516
38251,41,41,41,41,41,1800,7.4,2S1P,25,17.3,89.79,30.2,100.06,10.0,iFlight XING X1404 ,2.0,18.3,12.5,,4600,8.5,,0.28,17.0,Gemfan 5050 3-Blades BN,5.0,5.0,5.0,Poly Carbonate,1,154.06,82.0,12344.3,0.034968,16.8445,0.266001,1.064,5713.35,0.00840824,4.05034,0.321098,6.6661
26531,27,27,27,27,27,1300,14.8,4S1P,95,32.0,72.0,36.0,172.6,27.0,EMAX ECO Micro Series 1106,2.0,14.2,19.9,9N12P,4500,6.7,0.6,0.3,13.0,Gemfan 3052 - Flash,3.0,5.2,1.6,Poly Carbonate,1,205.8,83.0,35933.5,0.0482046,22.7159,0.497378,1.98951,11922,0.00626119,2.95052,0.238816,6.60901
33416,35,35,35,35,35,1550,11.1,3S1P,75,27.5,72.0,36.0,136.0,18.0,EMAX ECO Micro Series 1106,2.0,14.2,19.9,9N12P,4500,6.7,0.6,0.3,13.0,KingKong 6040,6.0,4.0,3.38,Plastic,1,176.32,74.0,15278.6,0.0545,25.6825,0.465616,1.86246,5250.18,0.00755382,3.55965,0.201316,6.53154
1996,2,2,2,2,2,450,11.1,3S1P,25,15.0,56.0,31.0,45.0,18.0,DYS D2225-12,3.175,22.0,25.0,,2000,32.0,,0.143,,Carbon Fiber 5030,5.0,3.0,2.18,Carbon Fiber,2,181.72,,20742.9,0.0243261,5.09478,0.31166,1.24664,8824.67,0.00500508,1.04826,0.411012,6.43924
36064,38,38,38,38,38,1550,14.8,4S1P,75,35.0,72.0,36.0,176.0,27.0,TMOTOR F1203,2.0,15.5,14.05,,7000,4.45,,0.198,15.0,Carbon Fiber 5030,5.0,3.0,2.18,Carbon Fiber,2,202.52,95.0,35792.6,0.0667401,48.9231,0.869159,3.47663,8824.67,0.00500508,3.66892,0.134264,6.33702
23584,24,24,24,24,24,1300,14.8,4s1p,45,29.8,72.0,36.5,154.0,27.0,EMAX ECO Micro Series 1106,2.0,14.2,19.9,9N12P,6000,6.7,1.2,0.19,13.0,Carbon Fiber 5030,5.0,3.0,2.18,Carbon Fiber,2,189.52,87.0,37273.1,0.0719366,45.1991,0.937972,3.75189,8824.67,0.00500508,3.14478,0.139749,6.20074
28306,29,29,29,29,29,1400,11.1,3S1P,50,19.5,85.0,35.0,131.0,18.0,TMOTOR F15,1.5,14.4,13.3,,4500,7.8,,0.197,14.0,T-Motor 5143 Ultra-Light,5.1,4.3,3.7,Poly Carbonate,1,177.0,78.0,21192.5,0.0688384,32.4393,0.610499,2.44199,6305.08,0.00730798,3.44363,0.187344,6.09822
12693,12,12,12,12,12,1000,11.1,3S1P,25,19.0,72.0,36.0,96.0,18.0,EMAX ECO Micro Series 1407,2.0,18.8,31.2,9N12P,2800,13.7,0.7,0.18,13.0,Quanum Carbon Fiber Propeller 6045 Self-Locking,6.0,4.5,6.78,Carbon Fiber,2,177.92,78.0,17311.8,0.0931667,27.3179,0.711014,2.84406,4749.42,0.0085136,2.49632,0.193294,6.00885