File: Aldo/Propulsion/Datasets/Results/ThrustFilteredCombinations.csv
,Capacity (mah),Nominal voltage (V),Cells configuration,Discharge (C),Battery height (mm),Bettry length (mm),Battery width (mm),Battery weight (g),Battery price (€),Motor name,Shaft diameter (mm),Motor diameter (mm),Motor height (mm),Magnetic poles,KV (rpm/V),Motor weight (g),No load current @10V (A),Resistance (Ohm),Motor price (€),Propeller Name,Propeller diameter (in),Propeller pitch (in),Propeller weight (g),Propeller material,Propeller price (€),Total weight (g),Total price (€),Peak rotational speed (rpm),Peak torque (Nm),Peak current (A),Peak thrust (kgf),Total thrust (kgf),Hovering rotational speed (rpm),Hovering torque (Nm),Hovering current (A),Hovering PWM,Hovering time (m)
24,300,7.4,2S1P,25,13.5,51.5,19.0,20.0,20.0,DYS D2225-12,3.175,22.0,25.0,,2000,32.0,,0.143,,6030 Carbon Nylon,6.0,3.0,2.22,Carbon Nylon,1.5,156.88,,13557.7,0.0207394,4.34366,0.234726,0.938902,,,,,
25,300,7.4,2S1P,25,13.5,51.5,19.0,20.0,20.0,DYS D2225-12,3.175,22.0,25.0,,2000,32.0,,0.143,,Gemfan 5040 R,5.0,4.0,3.0,ABS,,160.0,,13427.1,0.0229206,4.80047,0.218009,0.872034,,,,,
26,300,7.4,2S1P,25,13.5,51.5,19.0,20.0,20.0,DYS D2225-12,3.175,22.0,25.0,,2000,32.0,,0.143,,6045 plastic,6.0,4.5,6.0,Plastic,,172.0,,11977.1,0.0471277,9.87041,0.355709,1.42283,,,,,
27,300,7.4,2S1P,25,13.5,51.5,19.0,20.0,20.0,DYS D2225-12,3.175,22.0,25.0,,2000,32.0,,0.143,,Gemfan Hurricane 51499,5.1,4.99,5.2,Poly Carbonate,,168.8,,12512.7,0.0381849,7.99742,0.28767,1.15068,5555.01,0.00850074,1.78039,0.409743,2.52753
28,300,7.4,2S1P,25,13.5,51.5,19.0,20.0,20.0,DYS D2225-12,3.175,22.0,25.0,,2000,32.0,,0.143,,Carbon Fiber 5030,5.0,3.0,2.18,Carbon Fiber,,156.72,,14087.7,0.0118912,2.49048,0.150587,0.602348,,,,,
29,300,7.4,2S1P,25,13.5,51.5,19.0,20.0,20.0,DYS D2225-12,3.175,22.0,25.0,,2000,32.0,,0.143,,DALPROP 6040,6.0,4.0,4.32,Nylon,,165.28,,12536.1,0.0377956,7.91589,0.320992,1.28397,5250.18,0.00755382,1.58207,0.385315,2.84438
30,300,7.4,2S1P,25,13.5,51.5,19.0,20.0,20.0,DYS D2225-12,3.175,22.0,25.0,,2000,32.0,,0.143,,Gemfan 6030 Thick hub,6.0,3.0,5.23,Plastic,,168.92,,13557.7,0.0207394,4.34366,0.234726,0.938902,,,,,
31,300,7.4,2S1P,25,13.5,51.5,19.0,20.0,20.0,DYS D2225-12,3.175,22.0,25.0,,2000,32.0,,0.143,,Gemfan 5050 3-Blades BN,5.0,5.0,5.0,Poly Carbonate,,168.0,,12618.5,0.0364186,7.6275,0.277218,1.10887,5713.35,0.00840824,1.76102,0.420068,2.55534
32,300,7.4,2S1P,25,13.5,51.5,19.0,20.0,20.0,DYS D2225-12,3.175,22.0,25.0,,2000,32.0,,0.143,,KingKong 6040,6.0,4.0,3.38,Plastic,,161.52,,12536.1,0.0377956,7.91589,0.320992,1.28397,5250.18,0.00755382,1.58207,0.385315,2.84438
33,300,7.4,2S1P,25,13.5,51.5,19.0,20.0,20.0,DYS D2225-12,3.175,22.0,25.0,,2000,32.0,,0.143,,Quanum Carbon Fiber Propeller 6045 Self-Locking,6.0,4.5,6.78,Carbon Fiber,,175.12,,11977.1,0.0471277,9.87041,0.355709,1.42283,,,,,
34,300,7.4,2S1P,25,13.5,51.5,19.0,20.0,20.0,DYS D2225-12,3.175,22.0,25.0,,2000,32.0,,0.143,,T-Motor 5143 Ultra-Light,5.1,4.3,3.7,Poly Carbonate,,162.8,,13105.3,0.0282924,5.92554,0.247321,0.989284,,,,,
36,300,7.4,2S1P,25,13.5,51.5,19.0,20.0,20.0,DYS D2225-15,3.175,22.0,25.0,,1600,32.0,,0.203,,6030 Carbon Nylon,6.0,3.0,2.22,Carbon Nylon,1.5,156.88,,11065,0.0142416,2.38621,0.160205,0.640819,,,,,
38,300,7.4,2S1P,25,13.5,51.5,19.0,20.0,20.0,DYS D2225-15,3.175,22.0,25.0,,1600,32.0,,0.203,,6045 plastic,6.0,4.5,6.0,Plastic,,172.0,,10002.3,0.0337686,5.65798,0.253503,1.01401,,,,,
39,300,7.4,2S1P,25,13.5,51.5,19.0,20.0,20.0,DYS D2225-15,3.175,22.0,25.0,,1600,32.0,,0.203,,Gemfan Hurricane 51499,5.1,4.99,5.2,Poly Carbonate,,168.8,,10371.5,0.0269836,4.52114,0.202142,0.808569,5555.01,0.00850074,1.42431,0.508246,3.15942
41,300,7.4,2S1P,25,13.5,51.5,19.0,20.0,20.0,DYS D2225-15,3.175,22.0,25.0,,1600,32.0,,0.203,,DALPROP 6040,6.0,4.0,4.32,Nylon,,165.28,,10387.4,0.026692,4.47229,0.225416,0.901664,,,,,
42,300,7.4,2S1P,25,13.5,51.5,19.0,20.0,20.0,DYS D2225-15,3.175,22.0,25.0,,1600,32.0,,0.203,,Gemfan 6030 Thick hub,6.0,3.0,5.23,Plastic,,168.92,,11065,0.0142416,2.38621,0.160205,0.640819,,,,,
43,300,7.4,2S1P,25,13.5,51.5,19.0,20.0,20.0,DYS D2225-15,3.175,22.0,25.0,,1600,32.0,,0.203,,Gemfan 5050 3-Blades BN,5.0,5.0,5.0,Poly Carbonate,,168.0,,10443.4,0.0256633,4.29993,0.194243,0.776974,5713.35,0.00840824,1.40881,0.521194,3.19417
44,300,7.4,2S1P,25,13.5,51.5,19.0,20.0,20.0,DYS D2225-15,3.175,22.0,25.0,,1600,32.0,,0.203,,KingKong 6040,6.0,4.0,3.38,Plastic,,161.52,,10387.4,0.026692,4.47229,0.225416,0.901664,,,,,
45,300,7.4,2S1P,25,13.5,51.5,19.0,20.0,20.0,DYS D2225-15,3.175,22.0,25.0,,1600,32.0,,0.203,,Quanum Carbon Fiber Propeller 6045 Self-Locking,6.0,4.5,6.78,Carbon Fiber,,175.12,,10002.3,0.0337686,5.65798,0.253503,1.01401,,,,,
46,300,7.4,2S1P,25,13.5,51.5,19.0,20.0,20.0,DYS D2225-15,3.175,22.0,25.0,,1600,32.0,,0.203,,T-Motor 5143 Ultra-Light,5.1,4.3,3.7,Poly Carbonate,,162.8,,10769.2,0.0196759,3.29672,0.170989,0.683955,,,,,
216,300,7.4,2S1P,25,13.5,51.5,19.0,20.0,20.0,DYS D2822-8,3.175,28.0,22.0,,2600,38.0,,0.044,,6030 Carbon Nylon,6.0,3.0,2.22,Carbon Nylon,1.5,180.88,,18133.7,0.0355182,9.6706,0.405512,1.62205,6706.65,0.0056401,1.53564,0.357709,2.93038
217,300,7.4,2S1P,25,13.5,51.5,19.0,20.0,20.0,DYS D2822-8,3.175,28.0,22.0,,2600,38.0,,0.044,,Gemfan 5040 R,5.0,4.0,3.0,ABS,,184.0,,18010.8,0.0394635,10.7448,0.378679,1.51471,6908.24,0.00670332,1.82512,0.369908,2.46559
218,300,7.4,2S1P,25,13.5,51.5,19.0,20.0,20.0,DYS D2822-8,3.175,28.0,22.0,,2600,38.0,,0.044,,6045 plastic,6.0,4.5,6.0,Plastic,,196.0,,16565.3,0.0858711,23.3803,0.654471,2.61789,,,,,
219,300,7.4,2S1P,25,13.5,51.5,19.0,20.0,20.0,DYS D2822-8,3.175,28.0,22.0,,2600,38.0,,0.044,,Gemfan Hurricane 51499,5.1,4.99,5.2,Poly Carbonate,,192.8,,17116.6,0.0681727,18.5615,0.518437,2.07375,5555.01,0.00850074,2.31451,0.302484,1.94426
220,300,7.4,2S1P,25,13.5,51.5,19.0,20.0,20.0,DYS D2822-8,3.175,28.0,22.0,,2600,38.0,,0.044,,Carbon Fiber 5030,5.0,3.0,2.18,Carbon Fiber,,180.72,,18619.5,0.0199209,5.4239,0.254394,1.01758,8824.67,0.00500508,1.36274,0.466765,3.30217
221,300,7.4,2S1P,25,13.5,51.5,19.0,20.0,20.0,DYS D2822-8,3.175,28.0,22.0,,2600,38.0,,0.044,,DALPROP 6040,6.0,4.0,4.32,Nylon,,189.28,,17140.1,0.0674169,18.3557,0.57796,2.31184,5250.18,0.00755382,2.05669,0.285108,2.18798
222,300,7.4,2S1P,25,13.5,51.5,19.0,20.0,20.0,DYS D2822-8,3.175,28.0,22.0,,2600,38.0,,0.044,,Gemfan 6030 Thick hub,6.0,3.0,5.23,Plastic,,192.92,,18133.7,0.0355182,9.6706,0.405512,1.62205,6706.65,0.0056401,1.53564,0.357709,2.93038
223,300,7.4,2S1P,25,13.5,51.5,19.0,20.0,20.0,DYS D2822-8,3.175,28.0,22.0,,2600,38.0,,0.044,,Gemfan 5050 3-Blades BN,5.0,5.0,5.0,Poly Carbonate,,192.0,,17223.1,0.0647533,17.6305,0.497523,1.99009,5713.35,0.00840824,2.28932,0.310564,1.96565
224,300,7.4,2S1P,25,13.5,51.5,19.0,20.0,20.0,DYS D2822-8,3.175,28.0,22.0,,2600,38.0,,0.044,,KingKong 6040,6.0,4.0,3.38,Plastic,,185.52,,17140.1,0.0674169,18.3557,0.57796,2.31184,5250.18,0.00755382,2.05669,0.285108,2.18798
225,300,7.4,2S1P,25,13.5,51.5,19.0,20.0,20.0,DYS D2822-8,3.175,28.0,22.0,,2600,38.0,,0.044,,Quanum Carbon Fiber Propeller 6045 Self-Locking,6.0,4.5,6.78,Carbon Fiber,,199.12,,16565.3,0.0858711,23.3803,0.654471,2.61789,,,,,
226,300,7.4,2S1P,25,13.5,51.5,19.0,20.0,20.0,DYS D2822-8,3.175,28.0,22.0,,2600,38.0,,0.044,,T-Motor 5143 Ultra-Light,5.1,4.3,3.7,Poly Carbonate,,186.8,,17702.9,0.0493486,13.4362,0.435296,1.74118,6305.09,0.00730837,1.98986,0.339539,2.26146
228,300,7.4,2S1P,25,13.5,51.5,19.0,20.0,20.0,DYS D2822-12,3.175,28.0,22.0,,1800,38.0,,0.091,,6030 Carbon Nylon,6.0,3.0,2.22,Carbon Nylon,1.5,180.88,,12748.6,0.0185078,3.48864,0.209082,0.836328,,,,,
229,300,7.4,2S1P,25,13.5,51.5,19.0,20.0,20.0,DYS D2822-12,3.175,28.0,22.0,,1800,38.0,,0.091,,Gemfan 5040 R,5.0,4.0,3.0,ABS,,184.0,,12683.1,0.0206267,3.88804,0.195855,0.783421,,,,,
230,300,7.4,2S1P,25,13.5,51.5,19.0,20.0,20.0,DYS D2822-12,3.175,28.0,22.0,,1800,38.0,,0.091,,6045 plastic,6.0,4.5,6.0,Plastic,,196.0,,11885.4,0.0464629,8.75805,0.35061,1.40244,4749.42,0.0085136,1.60478,0.376297,2.80413
231,300,7.4,2S1P,25,13.5,51.5,19.0,20.0,20.0,DYS D2822-12,3.175,28.0,22.0,,1800,38.0,,0.091,,Gemfan Hurricane 51499,5.1,4.99,5.2,Poly Carbonate,,192.8,,12195.7,0.0364143,6.86392,0.27412,1.09648,5555.01,0.00850074,1.60235,0.436747,2.80837
233,300,7.4,2S1P,25,13.5,51.5,19.0,20.0,20.0,DYS D2822-12,3.175,28.0,22.0,,1800,38.0,,0.091,,DALPROP 6040,6.0,4.0,4.32,Nylon,,189.28,,12208.8,0.0359904,6.78403,0.305419,1.22167,5250.18,0.00755382,1.42386,0.411668,3.16042
234,300,7.4,2S1P,25,13.5,51.5,19.0,20.0,20.0,DYS D2822-12,3.175,28.0,22.0,,1800,38.0,,0.091,,Gemfan 6030 Thick hub,6.0,3.0,5.23,Plastic,,192.92,,12748.6,0.0185078,3.48864,0.209082,0.836328,,,,,
235,300,7.4,2S1P,25,13.5,51.5,19.0,20.0,20.0,DYS D2822-12,3.175,28.0,22.0,,1800,38.0,,0.091,,Gemfan 5050 3-Blades BN,5.0,5.0,5.0,Poly Carbonate,,192.0,,12254.8,0.0345003,6.50315,0.262385,1.04954,5713.35,0.00840824,1.58492,0.44842,2.83927
236,300,7.4,2S1P,25,13.5,51.5,19.0,20.0,20.0,DYS D2822-12,3.175,28.0,22.0,,1800,38.0,,0.091,,KingKong 6040,6.0,4.0,3.38,Plastic,,185.52,,12208.8,0.0359904,6.78403,0.305419,1.22167,5250.18,0.00755382,1.42386,0.411668,3.16042
237,300,7.4,2S1P,25,13.5,51.5,19.0,20.0,20.0,DYS D2822-12,3.175,28.0,22.0,,1800,38.0,,0.091,,Quanum Carbon Fiber Propeller 6045 Self-Locking,6.0,4.5,6.78,Carbon Fiber,,199.12,,11885.4,0.0464629,8.75805,0.35061,1.40244,4749.42,0.0085136,1.60478,0.376297,2.80413
238,300,7.4,2S1P,25,13.5,51.5,19.0,20.0,20.0,DYS D2822-12,3.175,28.0,22.0,,1800,38.0,,0.091,,T-Motor 5143 Ultra-Light,5.1,4.3,3.7,Poly Carbonate,,186.8,,12517.5,0.0259898,4.89897,0.226881,0.907522,6305.09,0.00730837,1.3776,0.490295,3.26656
242,300,7.4,2S1P,25,13.5,51.5,19.0,20.0,20.0,DYS D2822-14,3.175,28.0,22.0,,1450,38.0,,0.112,,6045 plastic,6.0,4.5,6.0,Plastic,,196.0,,9911.25,0.0332022,5.04154,0.249183,0.99673,,,,,
243,300,7.4,2S1P,25,13.5,51.5,19.0,20.0,20.0,DYS D2822-14,3.175,28.0,22.0,,1450,38.0,,0.112,,Gemfan Hurricane 51499,5.1,4.99,5.2,Poly Carbonate,,192.8,,10096.8,0.0256763,3.89878,0.192194,0.768778,5555.01,0.00850074,1.29078,0.537245,3.48625
245,300,7.4,2S1P,25,13.5,51.5,19.0,20.0,20.0,DYS D2822-14,3.175,28.0,22.0,,1450,38.0,,0.112,,DALPROP 6040,6.0,4.0,4.32,Nylon,,189.28,,10104.6,0.025363,3.85121,0.214015,0.856061,5250.18,0.00755382,1.147,0.50666,3.92328
247,300,7.4,2S1P,25,13.5,51.5,19.0,20.0,20.0,DYS D2822-14,3.175,28.0,22.0,,1450,38.0,,0.112,,Gemfan 5050 3-Blades BN,5.0,5.0,5.0,Poly Carbonate,,192.0,,10131.7,0.0242642,3.68436,0.183487,0.733947,,,,,
248,300,7.4,2S1P,25,13.5,51.5,19.0,20.0,20.0,DYS D2822-14,3.175,28.0,22.0,,1450,38.0,,0.112,,KingKong 6040,6.0,4.0,3.38,Plastic,,185.52,,10104.6,0.025363,3.85121,0.214015,0.856061,5250.18,0.00755382,1.147,0.50666,3.92328
249,300,7.4,2S1P,25,13.5,51.5,19.0,20.0,20.0,DYS D2822-14,3.175,28.0,22.0,,1450,38.0,,0.112,,Quanum Carbon Fiber Propeller 6045 Self-Locking,6.0,4.5,6.78,Carbon Fiber,,199.12,,9911.25,0.0332022,5.04154,0.249183,0.99673,,,,,
250,300,7.4,2S1P,25,13.5,51.5,19.0,20.0,20.0,DYS D2822-14,3.175,28.0,22.0,,1450,38.0,,0.112,,T-Motor 5143 Ultra-Light,5.1,4.3,3.7,Poly Carbonate,,186.8,,10284.4,0.0180687,2.74361,0.156805,0.627221,,,,,
254,300,7.4,2S1P,25,13.5,51.5,19.0,20.0,20.0,DYS D2822-17,3.175,28.0,22.0,,1100,38.0,,0.192,,6045 plastic,6.0,4.5,6.0,Plastic,,196.0,,7640.82,0.0205181,2.36352,0.152792,0.611167,,,,,
261,300,7.4,2S1P,25,13.5,51.5,19.0,20.0,20.0,DYS D2822-17,3.175,28.0,22.0,,1100,38.0,,0.192,,Quanum Carbon Fiber Propeller 6045 Self-Locking,6.0,4.5,6.78,Carbon Fiber,,199.12,,7640.82,0.0205181,2.36352,0.152792,0.611167,,,,,
264,300,7.4,2S1P,25,13.5,51.5,19.0,20.0,20.0,DYS D2812-14,3.175,28.0,12.0,,1600,22.0,,0.27,,6030 Carbon Nylon,6.0,3.0,2.22,Carbon Nylon,1.5,116.88,,10846.5,0.0137258,2.29978,0.15431,0.61724,,,,,
266,300,7.4,2S1P,25,13.5,51.5,19.0,20.0,20.0,DYS D2812-14,3.175,28.0,12.0,,1600,22.0,,0.27,,6045 plastic,6.0,4.5,6.0,Plastic,,132.0,,9582.25,0.031192,5.22627,0.233859,0.935438,,,,,
267,300,7.4,2S1P,25,13.5,51.5,19.0,20.0,20.0,DYS D2812-14,3.175,28.0,12.0,,1600,22.0,,0.27,,Gemfan Hurricane 51499,5.1,4.99,5.2,Poly Carbonate,,128.8,,10010.7,0.0252726,4.23446,0.189124,0.756496,,,,,
269,300,7.4,2S1P,25,13.5,51.5,19.0,20.0,20.0,DYS D2812-14,3.175,28.0,12.0,,1600,22.0,,0.27,,DALPROP 6040,6.0,4.0,4.32,Nylon,,125.28,,10029.4,0.0250149,4.19129,0.211031,0.844123,5250.18,0.00755382,1.26565,0.489607,3.55547
270,300,7.4,2S1P,25,13.5,51.5,19.0,20.0,20.0,DYS D2812-14,3.175,28.0,12.0,,1600,22.0,,0.27,,Gemfan 6030 Thick hub,6.0,3.0,5.23,Plastic,,128.92,,10846.5,0.0137258,2.29978,0.15431,0.61724,,,,,
271,300,7.4,2S1P,25,13.5,51.5,19.0,20.0,20.0,DYS D2812-14,3.175,28.0,12.0,,1600,22.0,,0.27,,Gemfan 5050 3-Blades BN,5.0,5.0,5.0,Poly Carbonate,,128.0,,10095.3,0.0241035,4.03858,0.182252,0.729007,,,,,
272,300,7.4,2S1P,25,13.5,51.5,19.0,20.0,20.0,DYS D2812-14,3.175,28.0,12.0,,1600,22.0,,0.27,,KingKong 6040,6.0,4.0,3.38,Plastic,,121.52,,10029.4,0.0250149,4.19129,0.211031,0.844123,5250.18,0.00755382,1.26565,0.489607,3.55547
273,300,7.4,2S1P,25,13.5,51.5,19.0,20.0,20.0,DYS D2812-14,3.175,28.0,12.0,,1600,22.0,,0.27,,Quanum Carbon Fiber Propeller 6045 Self-Locking,6.0,4.5,6.78,Carbon Fiber,,135.12,,9582.25,0.031192,5.22627,0.233859,0.935438,,,,,
274,300,7.4,2S1P,25,13.5,51.5,19.0,20.0,20.0,DYS D2812-14,3.175,28.0,12.0,,1600,22.0,,0.27,,T-Motor 5143 Ultra-Light,5.1,4.3,3.7,Poly Carbonate,,122.8,,10484.7,0.0187248,3.13737,0.162593,0.650373,6305.09,0.00730837,1.22453,0.577203,3.67488
504,300,7.4,2S1P,25,13.5,51.5,19.0,20.0,20.0,TMOTOR V2208 V2.0,4.0,27.6,31.95,,1750,36.9,,0.065,17.5,6030 Carbon Nylon,6.0,3.0,2.22,Carbon Nylon,1.5,176.48,96.0,12573.9,0.0180415,3.30628,0.20373,0.814919,,,,,
505,300,7.4,2S1P,25,13.5,51.5,19.0,20.0,20.0,TMOTOR V2208 V2.0,4.0,27.6,31.95,,1750,36.9,,0.065,17.5,Gemfan 5040 R,5.0,4.0,3.0,ABS,,179.6,,12529.6,0.0201671,3.69582,0.191422,0.765686,,,,,
506,300,7.4,2S1P,25,13.5,51.5,19.0,20.0,20.0,TMOTOR V2208 V2.0,4.0,27.6,31.95,,1750,36.9,,0.065,17.5,6045 plastic,6.0,4.5,6.0,Plastic,,191.6,,11968.8,0.0470679,8.62564,0.355249,1.421,,,,,
507,300,7.4,2S1P,25,13.5,51.5,19.0,20.0,20.0,TMOTOR V2208 V2.0,4.0,27.6,31.95,,1750,36.9,,0.065,17.5,Gemfan Hurricane 51499,5.1,4.99,5.2,Poly Carbonate,,188.4,,12191.4,0.0363906,6.66893,0.273939,1.09576,5555.01,0.00850074,1.55784,0.442642,2.88861
509,300,7.4,2S1P,25,13.5,51.5,19.0,20.0,20.0,TMOTOR V2208 V2.0,4.0,27.6,31.95,,1750,36.9,,0.065,17.5,DALPROP 6040,6.0,4.0,4.32,Nylon,,184.88,,12200.7,0.0359462,6.58749,0.305038,1.22015,5250.18,0.00755382,1.38431,0.417579,3.25072
510,300,7.4,2S1P,25,13.5,51.5,19.0,20.0,20.0,TMOTOR V2208 V2.0,4.0,27.6,31.95,,1750,36.9,,0.065,17.5,Gemfan 6030 Thick hub,6.0,3.0,5.23,Plastic,,188.52,,12573.9,0.0180415,3.30628,0.20373,0.814919,,,,,
511,300,7.4,2S1P,25,13.5,51.5,19.0,20.0,20.0,TMOTOR V2208 V2.0,4.0,27.6,31.95,,1750,36.9,,0.065,17.5,Gemfan 5050 3-Blades BN,5.0,5.0,5.0,Poly Carbonate,,187.6,,12233.2,0.0343877,6.30188,0.261516,1.04606,,,,,
512,300,7.4,2S1P,25,13.5,51.5,19.0,20.0,20.0,TMOTOR V2208 V2.0,4.0,27.6,31.95,,1750,36.9,,0.065,17.5,KingKong 6040,6.0,4.0,3.38,Plastic,,181.12,,12200.7,0.0359462,6.58749,0.305038,1.22015,5250.18,0.00755382,1.38431,0.417579,3.25072
513,300,7.4,2S1P,25,13.5,51.5,19.0,20.0,20.0,TMOTOR V2208 V2.0,4.0,27.6,31.95,,1750,36.9,,0.065,17.5,Quanum Carbon Fiber Propeller 6045 Self-Locking,6.0,4.5,6.78,Carbon Fiber,,194.72,,11968.8,0.0470679,8.62564,0.355249,1.421,,,,,
514,300,7.4,2S1P,25,13.5,51.5,19.0,20.0,20.0,TMOTOR V2208 V2.0,4.0,27.6,31.95,,1750,36.9,,0.065,17.5,T-Motor 5143 Ultra-Light,5.1,4.3,3.7,Poly Carbonate,,182.4,,12416.3,0.0256023,4.69186,0.223443,0.893771,6305.09,0.00730837,1.33933,0.498644,3.35989
516,300,7.4,2S1P,25,13.5,51.5,19.0,20.0,20.0,TMOTOR V2208 V2.0,4.0,27.6,31.95,,1950,37.2,,0.052,17.5,6030 Carbon Nylon,6.0,3.0,2.22,Carbon Nylon,1.5,177.68,96.0,13975.7,0.0219379,4.47981,0.248516,0.994066,,,,,
517,300,7.4,2S1P,25,13.5,51.5,19.0,20.0,20.0,TMOTOR V2208 V2.0,4.0,27.6,31.95,,1950,37.2,,0.052,17.5,Gemfan 5040 R,5.0,4.0,3.0,ABS,,180.8,,13922.5,0.0245096,5.00495,0.233377,0.933506,6908.24,0.00670332,1.36884,0.488361,3.28745
518,300,7.4,2S1P,25,13.5,51.5,19.0,20.0,20.0,TMOTOR V2208 V2.0,4.0,27.6,31.95,,1950,37.2,,0.052,17.5,6045 plastic,6.0,4.5,6.0,Plastic,,192.8,,13253.2,0.0568354,11.606,0.430285,1.72114,4749.42,0.0085136,1.73851,0.341352,2.58843
519,300,7.4,2S1P,25,13.5,51.5,19.0,20.0,20.0,TMOTOR V2208 V2.0,4.0,27.6,31.95,,1950,37.2,,0.052,17.5,Gemfan Hurricane 51499,5.1,4.99,5.2,Poly Carbonate,,189.6,,13517.8,0.0440523,8.99563,0.332643,1.33057,,,,,
520,300,7.4,2S1P,25,13.5,51.5,19.0,20.0,20.0,TMOTOR V2208 V2.0,4.0,27.6,31.95,,1950,37.2,,0.052,17.5,Carbon Fiber 5030,5.0,3.0,2.18,Carbon Fiber,,177.52,,14180.8,0.0120369,2.45797,0.152462,0.609849,8824.67,0.00500508,1.02205,0.618732,4.4029
521,300,7.4,2S1P,25,13.5,51.5,19.0,20.0,20.0,TMOTOR V2208 V2.0,4.0,27.6,31.95,,1950,37.2,,0.052,17.5,DALPROP 6040,6.0,4.0,4.32,Nylon,,186.08,,13528.9,0.0435189,8.88672,0.370446,1.48178,5250.18,0.00755382,1.54252,0.374677,2.91731
522,300,7.4,2S1P,25,13.5,51.5,19.0,20.0,20.0,TMOTOR V2208 V2.0,4.0,27.6,31.95,,1950,37.2,,0.052,17.5,Gemfan 6030 Thick hub,6.0,3.0,5.23,Plastic,,189.72,,13975.7,0.0219379,4.47981,0.248516,0.994066,,,,,
523,300,7.4,2S1P,25,13.5,51.5,19.0,20.0,20.0,TMOTOR V2208 V2.0,4.0,27.6,31.95,,1950,37.2,,0.052,17.5,Gemfan 5050 3-Blades BN,5.0,5.0,5.0,Poly Carbonate,,188.8,,13567.6,0.0416476,8.50458,0.317711,1.27085,,,,,
[...]
68738,3500,7.4,2S1P,60,18.8,92.8,46.5,149.0,30.0,iFlight XING X1404 ,2.0,18.3,12.5,,3800,8.5,,0.28,17.0,6045 plastic,6.0,4.5,6.0,Plastic,,207.0,,11018.8,0.04039,16.0726,0.304092,1.21637,4749.42,0.0085136,3.38786,0.297088,15.4965
68743,3500,7.4,2S1P,60,18.8,92.8,46.5,149.0,30.0,iFlight XING X1404 ,2.0,18.3,12.5,,3800,8.5,,0.28,17.0,Gemfan 5050 3-Blades BN,5.0,5.0,5.0,Poly Carbonate,,203.0,,12643.6,0.0365525,14.5455,0.278254,1.11301,,,,,
68749,3500,7.4,2S1P,60,18.8,92.8,46.5,149.0,30.0,iFlight XING X1404 ,2.0,18.3,12.5,,4600,8.5,,0.28,17.0,Gemfan 5040 R,5.0,4.0,3.0,ABS,,195.0,,15497.8,0.0298854,14.3961,0.28548,1.14192,6908.24,0.00670332,3.22906,0.325125,16.2586
68754,3500,7.4,2S1P,60,18.8,92.8,46.5,149.0,30.0,iFlight XING X1404 ,2.0,18.3,12.5,,4600,8.5,,0.28,17.0,Gemfan 6030 Thick hub,6.0,3.0,5.23,Plastic,,203.92,,16184.3,0.028779,13.8631,0.32745,1.3098,6706.65,0.00564008,2.71688,0.299823,19.3236
68808,3500,7.4,2S1P,60,18.8,92.8,46.5,149.0,30.0,EMAX ECO Micro Series 1404,1.5,18.8,19.75,9N12P,3700,8.6,0.5,0.265,13.0,6030 Carbon Nylon,6.0,3.0,2.22,Carbon Nylon,1.5,192.28,88.0,16300.7,0.0291631,11.2996,0.331893,1.32757,,,,,
68813,3500,7.4,2S1P,60,18.8,92.8,46.5,149.0,30.0,EMAX ECO Micro Series 1404,1.5,18.8,19.75,9N12P,3700,8.6,0.5,0.265,13.0,DALPROP 6040,6.0,4.0,4.32,Nylon,,200.68,,12691,0.0386646,14.9811,0.328493,1.31397,5250.18,0.00755382,2.92682,0.296564,17.9375
68819,3500,7.4,2S1P,60,18.8,92.8,46.5,149.0,30.0,EMAX ECO Micro Series 1404,1.5,18.8,19.75,9N12P,3700,8.6,0.5,0.265,13.0,Gemfan 3052 - Flash,3.0,5.2,1.6,Poly Carbonate,,189.8,,20749.4,0.0174532,6.76246,0.17714,0.708561,11922,0.00626119,2.42598,0.522302,21.6407
68824,3500,7.4,2S1P,60,18.8,92.8,46.5,149.0,30.0,EMAX ECO Micro Series 1404,1.5,18.8,19.75,9N12P,6000,8.6,1.0,0.12,13.0,Carbon Fiber 5030,5.0,3.0,2.18,Carbon Fiber,,192.12,,26764.9,0.0389821,24.4932,0.503258,2.01303,,,,,
68830,3500,7.4,2S1P,60,18.8,92.8,46.5,149.0,30.0,EMAX ECO Micro Series 1404,1.5,18.8,19.75,9N12P,6000,8.6,1.0,0.12,13.0,T-Motor 5143 Ultra-Light,5.1,4.3,3.7,Poly Carbonate,,198.2,,18987.1,0.0561748,35.2957,0.496551,1.9862,6305.09,0.00730837,4.59199,0.216471,11.433
68835,3500,7.4,2S1P,60,18.8,92.8,46.5,149.0,30.0,EMAX ECO Micro Series 1106,2.0,14.2,19.9,9N12P,4500,6.7,0.6,0.3,13.0,Gemfan Hurricane 51499,5.1,4.99,5.2,Poly Carbonate,,196.6,,11733.2,0.0339009,15.9754,0.254904,1.01961,5555.01,0.00850074,4.00588,0.329218,13.1057
68840,3500,7.4,2S1P,60,18.8,92.8,46.5,149.0,30.0,EMAX ECO Micro Series 1106,2.0,14.2,19.9,9N12P,4500,6.7,0.6,0.3,13.0,KingKong 6040,6.0,4.0,3.38,Plastic,,189.32,,11800.4,0.0337952,15.9256,0.286497,1.14599,5250.18,0.00755368,3.55953,0.301968,14.7492
68845,3500,7.4,2S1P,60,18.8,92.8,46.5,149.0,30.0,EMAX ECO Micro Series 1106,2.0,14.2,19.9,9N12P,6000,6.7,1.2,0.19,13.0,Gemfan 5040 R,5.0,4.0,3.0,ABS,,187.8,,17525.6,0.0375193,23.574,0.359727,1.43891,6908.22,0.00670141,4.20945,0.263671,12.4719
68850,3500,7.4,2S1P,60,18.8,92.8,46.5,149.0,30.0,EMAX ECO Micro Series 1106,2.0,14.2,19.9,9N12P,6000,6.7,1.2,0.19,13.0,Gemfan 6030 Thick hub,6.0,3.0,5.23,Plastic,,196.72,,18362.3,0.0363511,22.8401,0.415177,1.66071,6706.65,0.0056401,3.54378,0.24204,14.8147
68855,3500,7.4,2S1P,60,18.8,92.8,46.5,149.0,30.0,EMAX ECO Micro Series 1106,2.0,14.2,19.9,9N12P,6000,6.7,1.2,0.19,13.0,Gemfan 3052 - Flash,3.0,5.2,1.6,Poly Carbonate,,182.2,,25754.5,0.026031,16.3557,0.265919,1.06367,11922,0.00626119,3.93402,0.369521,13.3451
115862,7000,3.7,1S2P,50,19.0,93.0,47.0,147.0,,TMOTOR F1103,1.5,14.4,14.0,,8000,5.3,,0.163,12.0,6045 plastic,6.0,4.5,6.0,Plastic,,192.2,,7569.7,0.0201662,16.8944,0.150129,0.600515,4749.42,0.0085136,7.13234,0.474662,14.7217
115869,7000,3.7,1S2P,50,19.0,93.0,47.0,147.0,,TMOTOR F1103,1.5,14.4,14.0,,8000,5.3,,0.163,12.0,Quanum Carbon Fiber Propeller 6045 Self-Locking,6.0,4.5,6.78,Carbon Fiber,,195.32,,7569.7,0.0201662,16.8944,0.150129,0.600515,4749.42,0.0085136,7.13234,0.474662,14.7217
115878,7000,3.7,1S2P,50,19.0,93.0,47.0,147.0,,TMOTOR F15,1.5,14.4,13.3,,4500,7.8,,0.197,14.0,Gemfan 6030 Thick hub,6.0,3.0,5.23,Plastic,,199.12,,10881.6,0.0138081,6.50692,0.155251,0.621002,6706.65,0.0056401,2.65784,0.544313,39.5058
115880,7000,3.7,1S2P,50,19.0,93.0,47.0,147.0,,TMOTOR F15,1.5,14.4,13.3,,4500,7.8,,0.197,14.0,KingKong 6040,6.0,4.0,3.38,Plastic,,191.72,,8669.39,0.0191038,9.00238,0.160461,0.641845,5250.18,0.00755382,3.55965,0.504854,29.4973
115881,7000,3.7,1S2P,50,19.0,93.0,47.0,147.0,,TMOTOR F15,1.5,14.4,13.3,,4500,7.8,,0.197,14.0,Quanum Carbon Fiber Propeller 6045 Self-Locking,6.0,4.5,6.78,Carbon Fiber,,205.32,,7782.38,0.0212269,10.003,0.158157,0.632627,,,,,
116052,7000,3.7,1S2P,50,19.0,93.0,47.0,147.0,,EMAX ECO Micro Series 1404,1.5,18.8,19.75,9N12P,6000,8.6,1.0,0.12,13.0,6030 Carbon Nylon,6.0,3.0,2.22,Carbon Nylon,1.5,190.28,,13231.3,0.0198252,12.4565,0.224214,0.896856,,,,,
116053,7000,3.7,1S2P,50,19.0,93.0,47.0,147.0,,EMAX ECO Micro Series 1404,1.5,18.8,19.75,9N12P,6000,8.6,1.0,0.12,13.0,Gemfan 5040 R,5.0,4.0,3.0,ABS,,193.4,,12761.6,0.0208634,13.1089,0.19814,0.792559,,,,,
116054,7000,3.7,1S2P,50,19.0,93.0,47.0,147.0,,EMAX ECO Micro Series 1404,1.5,18.8,19.75,9N12P,6000,8.6,1.0,0.12,13.0,6045 plastic,6.0,4.5,6.0,Plastic,,205.4,,9175.96,0.0287895,18.089,0.215566,0.862264,4749.42,0.0085136,5.34925,0.387427,19.6289
116055,7000,3.7,1S2P,50,19.0,93.0,47.0,147.0,,EMAX ECO Micro Series 1404,1.5,18.8,19.75,9N12P,6000,8.6,1.0,0.12,13.0,Gemfan Hurricane 51499,5.1,4.99,5.2,Poly Carbonate,,202.2,,10252,0.0264109,16.5945,0.197784,0.791135,5555.01,0.00850074,5.34117,0.423453,19.6586
116056,7000,3.7,1S2P,50,19.0,93.0,47.0,147.0,,EMAX ECO Micro Series 1404,1.5,18.8,19.75,9N12P,6000,8.6,1.0,0.12,13.0,Carbon Fiber 5030,5.0,3.0,2.18,Carbon Fiber,,190.12,,15658.6,0.0144597,9.08532,0.183697,0.734786,8824.67,0.00500506,3.14476,0.4995,33.3888
116057,7000,3.7,1S2P,50,19.0,93.0,47.0,147.0,,EMAX ECO Micro Series 1404,1.5,18.8,19.75,9N12P,6000,8.6,1.0,0.12,13.0,DALPROP 6040,6.0,4.0,4.32,Nylon,,198.68,,10303.9,0.0262962,16.5224,0.22202,0.88808,5250.18,0.00755381,4.74619,0.390425,22.123
116058,7000,3.7,1S2P,50,19.0,93.0,47.0,147.0,,EMAX ECO Micro Series 1404,1.5,18.8,19.75,9N12P,6000,8.6,1.0,0.12,13.0,Gemfan 6030 Thick hub,6.0,3.0,5.23,Plastic,,202.32,,13231.3,0.0198252,12.4565,0.224214,0.896856,,,,,
116059,7000,3.7,1S2P,50,19.0,93.0,47.0,147.0,,EMAX ECO Micro Series 1404,1.5,18.8,19.75,9N12P,6000,8.6,1.0,0.12,13.0,Gemfan 5050 3-Blades BN,5.0,5.0,5.0,Poly Carbonate,,201.4,,10491.3,0.0258818,16.262,0.195924,0.783696,5713.35,0.00840824,5.28305,0.4287,19.8749
116060,7000,3.7,1S2P,50,19.0,93.0,47.0,147.0,,EMAX ECO Micro Series 1404,1.5,18.8,19.75,9N12P,6000,8.6,1.0,0.12,13.0,KingKong 6040,6.0,4.0,3.38,Plastic,,194.92,,10303.9,0.0262962,16.5224,0.22202,0.88808,5250.18,0.00755381,4.74619,0.390425,22.123
116062,7000,3.7,1S2P,50,19.0,93.0,47.0,147.0,,EMAX ECO Micro Series 1404,1.5,18.8,19.75,9N12P,6000,8.6,1.0,0.12,13.0,T-Motor 5143 Ultra-Light,5.1,4.3,3.7,Poly Carbonate,,196.2,,11746.7,0.0231068,14.5184,0.201329,0.805314,6305.09,0.00730837,4.59199,0.432942,22.8659
116076,7000,3.7,1S2P,50,19.0,93.0,47.0,147.0,,EMAX ECO Micro Series 1106,2.0,14.2,19.9,9N12P,6000,6.7,1.2,0.19,13.0,6030 Carbon Nylon,6.0,3.0,2.22,Carbon Nylon,1.5,182.68,,11407.3,0.0150676,9.46724,0.169651,0.678605,6706.65,0.0056401,3.54378,0.484079,29.6294
116078,7000,3.7,1S2P,50,19.0,93.0,47.0,147.0,,EMAX ECO Micro Series 1106,2.0,14.2,19.9,9N12P,6000,6.7,1.2,0.19,13.0,6045 plastic,6.0,4.5,6.0,Plastic,,197.8,,7610.59,0.0203682,12.7977,0.151657,0.606629,4749.42,0.0085136,5.34925,0.488629,19.6289
116081,7000,3.7,1S2P,50,19.0,93.0,47.0,147.0,,EMAX ECO Micro Series 1106,2.0,14.2,19.9,9N12P,6000,6.7,1.2,0.19,13.0,DALPROP 6040,6.0,4.0,4.32,Nylon,,191.08,,8630.25,0.0189447,11.9033,0.159102,0.636409,5250.18,0.00755377,4.74614,0.480215,22.1232
116082,7000,3.7,1S2P,50,19.0,93.0,47.0,147.0,,EMAX ECO Micro Series 1106,2.0,14.2,19.9,9N12P,6000,6.7,1.2,0.19,13.0,Gemfan 6030 Thick hub,6.0,3.0,5.23,Plastic,,194.72,,11407.3,0.0150676,9.46724,0.169651,0.678605,6706.65,0.0056401,3.54378,0.484079,29.6294
116084,7000,3.7,1S2P,50,19.0,93.0,47.0,147.0,,EMAX ECO Micro Series 1106,2.0,14.2,19.9,9N12P,6000,6.7,1.2,0.19,13.0,KingKong 6040,6.0,4.0,3.38,Plastic,,187.32,,8630.25,0.0189447,11.9033,0.159102,0.636409,5250.18,0.00755377,4.74614,0.480215,22.1232
116085,7000,3.7,1S2P,50,19.0,93.0,47.0,147.0,,EMAX ECO Micro Series 1106,2.0,14.2,19.9,9N12P,6000,6.7,1.2,0.19,13.0,Quanum Carbon Fiber Propeller 6045 Self-Locking,6.0,4.5,6.78,Carbon Fiber,,200.92,,7610.59,0.0203682,12.7977,0.151657,0.606629,4749.42,0.0085136,5.34925,0.488629,19.6289