File: Aldo/Propulsion/Datasets/Results/WeightFilteredCombinations.csv
,Capacity (mah),Nominal voltage (V),Cells configuration,Discharge (C),Battery height (mm),Bettry length (mm),Battery width (mm),Battery weight (g),Motor name,Shaft diameter (mm),Motor diameter (mm),Motor height (mm),Magnetic poles,KV (rpm/V),Motor weight (g),No load current (A),Resistance (Ohm),Propeller Name,Propeller diameter (in),Propeller pitch (in),Propeller weight (g),Propeller material,Total weight (g),Peak rotational speed (rpm),Peak torque (Nm),Peak current (A),Peak thrust (kgf),Total thrust (kgf)
0,300,7.4,2S1P,25,13.5,51.5,19.0,20.0,DYS D1410,,14.0,10.5,,4000,5.0,,,6030 Carbon Nylon,6.0,3.0,2.22,Carbon Nylon,48.88,,,,,
1,300,7.4,2S1P,25,13.5,51.5,19.0,20.0,DYS D1410,,14.0,10.5,,4000,5.0,,,Gemfan 5040 R,5.0,4.0,3.0,ABS,52.0,,,,,
2,300,7.4,2S1P,25,13.5,51.5,19.0,20.0,DYS D1410,,14.0,10.5,,4000,5.0,,,6045 plastic,6.0,4.5,6.0,Plastic,64.0,,,,,
3,300,7.4,2S1P,25,13.5,51.5,19.0,20.0,DYS D1410,,14.0,10.5,,4000,5.0,,,Gemfan Hurricane 51499,5.1,4.99,5.2,Poly Carbonate,60.8,,,,,
4,300,7.4,2S1P,25,13.5,51.5,19.0,20.0,DYS D1410,,14.0,10.5,,4000,5.0,,,Carbon Fiber 5030,5.0,3.0,2.18,Carbon Fiber,48.72,,,,,
5,300,7.4,2S1P,25,13.5,51.5,19.0,20.0,DYS D1410,,14.0,10.5,,4000,5.0,,,DALPROP 6040,6.0,4.0,4.32,Nylon,57.28,,,,,
6,300,7.4,2S1P,25,13.5,51.5,19.0,20.0,DYS D1410,,14.0,10.5,,4000,5.0,,,Gemfan 6030 Thick hub,6.0,3.0,5.23,Plastic,60.92,,,,,
7,300,7.4,2S1P,25,13.5,51.5,19.0,20.0,DYS D1410,,14.0,10.5,,4000,5.0,,,Gemfan 5050 3-Blades BN,5.0,5.0,5.0,Poly Carbonate,60.0,,,,,
8,300,7.4,2S1P,25,13.5,51.5,19.0,20.0,DYS D1410,,14.0,10.5,,4000,5.0,,,KingKong 6040,6.0,4.0,3.38,Plastic,53.52,,,,,
9,300,7.4,2S1P,25,13.5,51.5,19.0,20.0,DYS D1410,,14.0,10.5,,4000,5.0,,,Quanum Carbon Fiber Propeller 6045 Self-Locking,6.0,4.5,6.78,Carbon Fiber,67.12,,,,,
10,300,7.4,2S1P,25,13.5,51.5,19.0,20.0,DYS D1410,,14.0,10.5,,4000,5.0,,,T-Motor 5143 Ultra-Light,5.1,4.3,3.7,Poly Carbonate,54.8,,,,,
11,300,7.4,2S1P,25,13.5,51.5,19.0,20.0,DYS D1410,,14.0,10.5,,4000,5.0,,,Gemfan 3052 - Flash,3.0,5.2,1.6,Poly Carbonate,46.4,,,,,
12,300,7.4,2S1P,25,13.5,51.5,19.0,20.0,DYS D1410,,14.0,10.5,,3500,5.0,,,6030 Carbon Nylon,6.0,3.0,2.22,Carbon Nylon,48.88,,,,,
13,300,7.4,2S1P,25,13.5,51.5,19.0,20.0,DYS D1410,,14.0,10.5,,3500,5.0,,,Gemfan 5040 R,5.0,4.0,3.0,ABS,52.0,,,,,
14,300,7.4,2S1P,25,13.5,51.5,19.0,20.0,DYS D1410,,14.0,10.5,,3500,5.0,,,6045 plastic,6.0,4.5,6.0,Plastic,64.0,,,,,
15,300,7.4,2S1P,25,13.5,51.5,19.0,20.0,DYS D1410,,14.0,10.5,,3500,5.0,,,Gemfan Hurricane 51499,5.1,4.99,5.2,Poly Carbonate,60.8,,,,,
16,300,7.4,2S1P,25,13.5,51.5,19.0,20.0,DYS D1410,,14.0,10.5,,3500,5.0,,,Carbon Fiber 5030,5.0,3.0,2.18,Carbon Fiber,48.72,,,,,
17,300,7.4,2S1P,25,13.5,51.5,19.0,20.0,DYS D1410,,14.0,10.5,,3500,5.0,,,DALPROP 6040,6.0,4.0,4.32,Nylon,57.28,,,,,
18,300,7.4,2S1P,25,13.5,51.5,19.0,20.0,DYS D1410,,14.0,10.5,,3500,5.0,,,Gemfan 6030 Thick hub,6.0,3.0,5.23,Plastic,60.92,,,,,
19,300,7.4,2S1P,25,13.5,51.5,19.0,20.0,DYS D1410,,14.0,10.5,,3500,5.0,,,Gemfan 5050 3-Blades BN,5.0,5.0,5.0,Poly Carbonate,60.0,,,,,
20,300,7.4,2S1P,25,13.5,51.5,19.0,20.0,DYS D1410,,14.0,10.5,,3500,5.0,,,KingKong 6040,6.0,4.0,3.38,Plastic,53.52,,,,,
21,300,7.4,2S1P,25,13.5,51.5,19.0,20.0,DYS D1410,,14.0,10.5,,3500,5.0,,,Quanum Carbon Fiber Propeller 6045 Self-Locking,6.0,4.5,6.78,Carbon Fiber,67.12,,,,,
22,300,7.4,2S1P,25,13.5,51.5,19.0,20.0,DYS D1410,,14.0,10.5,,3500,5.0,,,T-Motor 5143 Ultra-Light,5.1,4.3,3.7,Poly Carbonate,54.8,,,,,
23,300,7.4,2S1P,25,13.5,51.5,19.0,20.0,DYS D1410,,14.0,10.5,,3500,5.0,,,Gemfan 3052 - Flash,3.0,5.2,1.6,Poly Carbonate,46.4,,,,,
24,300,7.4,2S1P,25,13.5,51.5,19.0,20.0,DYS D2225-12,3.175,22.0,25.0,,2000,32.0,,0.143,6030 Carbon Nylon,6.0,3.0,2.22,Carbon Nylon,156.88,13557.7,0.0207394,4.34366,0.234726,0.938902
25,300,7.4,2S1P,25,13.5,51.5,19.0,20.0,DYS D2225-12,3.175,22.0,25.0,,2000,32.0,,0.143,Gemfan 5040 R,5.0,4.0,3.0,ABS,160.0,13427.1,0.0229206,4.80047,0.218009,0.872034
26,300,7.4,2S1P,25,13.5,51.5,19.0,20.0,DYS D2225-12,3.175,22.0,25.0,,2000,32.0,,0.143,6045 plastic,6.0,4.5,6.0,Plastic,172.0,11977.1,0.0471277,9.87041,0.355709,1.42283
27,300,7.4,2S1P,25,13.5,51.5,19.0,20.0,DYS D2225-12,3.175,22.0,25.0,,2000,32.0,,0.143,Gemfan Hurricane 51499,5.1,4.99,5.2,Poly Carbonate,168.8,12512.7,0.0381849,7.99742,0.28767,1.15068
28,300,7.4,2S1P,25,13.5,51.5,19.0,20.0,DYS D2225-12,3.175,22.0,25.0,,2000,32.0,,0.143,Carbon Fiber 5030,5.0,3.0,2.18,Carbon Fiber,156.72,14087.7,0.0118912,2.49048,0.150587,0.602348
29,300,7.4,2S1P,25,13.5,51.5,19.0,20.0,DYS D2225-12,3.175,22.0,25.0,,2000,32.0,,0.143,DALPROP 6040,6.0,4.0,4.32,Nylon,165.28,12536.1,0.0377956,7.91589,0.320992,1.28397
30,300,7.4,2S1P,25,13.5,51.5,19.0,20.0,DYS D2225-12,3.175,22.0,25.0,,2000,32.0,,0.143,Gemfan 6030 Thick hub,6.0,3.0,5.23,Plastic,168.92,13557.7,0.0207394,4.34366,0.234726,0.938902
31,300,7.4,2S1P,25,13.5,51.5,19.0,20.0,DYS D2225-12,3.175,22.0,25.0,,2000,32.0,,0.143,Gemfan 5050 3-Blades BN,5.0,5.0,5.0,Poly Carbonate,168.0,12618.5,0.0364186,7.6275,0.277218,1.10887
32,300,7.4,2S1P,25,13.5,51.5,19.0,20.0,DYS D2225-12,3.175,22.0,25.0,,2000,32.0,,0.143,KingKong 6040,6.0,4.0,3.38,Plastic,161.52,12536.1,0.0377956,7.91589,0.320992,1.28397
33,300,7.4,2S1P,25,13.5,51.5,19.0,20.0,DYS D2225-12,3.175,22.0,25.0,,2000,32.0,,0.143,Quanum Carbon Fiber Propeller 6045 Self-Locking,6.0,4.5,6.78,Carbon Fiber,175.12,11977.1,0.0471277,9.87041,0.355709,1.42283
34,300,7.4,2S1P,25,13.5,51.5,19.0,20.0,DYS D2225-12,3.175,22.0,25.0,,2000,32.0,,0.143,T-Motor 5143 Ultra-Light,5.1,4.3,3.7,Poly Carbonate,162.8,13105.3,0.0282924,5.92554,0.247321,0.989284
35,300,7.4,2S1P,25,13.5,51.5,19.0,20.0,DYS D2225-12,3.175,22.0,25.0,,2000,32.0,,0.143,Gemfan 3052 - Flash,3.0,5.2,1.6,Poly Carbonate,154.4,14276.5,0.00873908,1.83031,0.0877076,0.35083
36,300,7.4,2S1P,25,13.5,51.5,19.0,20.0,DYS D2225-15,3.175,22.0,25.0,,1600,32.0,,0.203,6030 Carbon Nylon,6.0,3.0,2.22,Carbon Nylon,156.88,11065,0.0142416,2.38621,0.160205,0.640819
37,300,7.4,2S1P,25,13.5,51.5,19.0,20.0,DYS D2225-15,3.175,22.0,25.0,,1600,32.0,,0.203,Gemfan 5040 R,5.0,4.0,3.0,ABS,160.0,10980.3,0.0157977,2.64693,0.149356,0.597423
38,300,7.4,2S1P,25,13.5,51.5,19.0,20.0,DYS D2225-15,3.175,22.0,25.0,,1600,32.0,,0.203,6045 plastic,6.0,4.5,6.0,Plastic,172.0,10002.3,0.0337686,5.65798,0.253503,1.01401
39,300,7.4,2S1P,25,13.5,51.5,19.0,20.0,DYS D2225-15,3.175,22.0,25.0,,1600,32.0,,0.203,Gemfan Hurricane 51499,5.1,4.99,5.2,Poly Carbonate,168.8,10371.5,0.0269836,4.52114,0.202142,0.808569
40,300,7.4,2S1P,25,13.5,51.5,19.0,20.0,DYS D2225-15,3.175,22.0,25.0,,1600,32.0,,0.203,Carbon Fiber 5030,5.0,3.0,2.18,Carbon Fiber,156.72,11402.4,0.00804103,1.34729,0.101186,0.404744
41,300,7.4,2S1P,25,13.5,51.5,19.0,20.0,DYS D2225-15,3.175,22.0,25.0,,1600,32.0,,0.203,DALPROP 6040,6.0,4.0,4.32,Nylon,165.28,10387.4,0.026692,4.47229,0.225416,0.901664
42,300,7.4,2S1P,25,13.5,51.5,19.0,20.0,DYS D2225-15,3.175,22.0,25.0,,1600,32.0,,0.203,Gemfan 6030 Thick hub,6.0,3.0,5.23,Plastic,168.92,11065,0.0142416,2.38621,0.160205,0.640819
43,300,7.4,2S1P,25,13.5,51.5,19.0,20.0,DYS D2225-15,3.175,22.0,25.0,,1600,32.0,,0.203,Gemfan 5050 3-Blades BN,5.0,5.0,5.0,Poly Carbonate,168.0,10443.4,0.0256633,4.29993,0.194243,0.776974
44,300,7.4,2S1P,25,13.5,51.5,19.0,20.0,DYS D2225-15,3.175,22.0,25.0,,1600,32.0,,0.203,KingKong 6040,6.0,4.0,3.38,Plastic,161.52,10387.4,0.026692,4.47229,0.225416,0.901664
45,300,7.4,2S1P,25,13.5,51.5,19.0,20.0,DYS D2225-15,3.175,22.0,25.0,,1600,32.0,,0.203,Quanum Carbon Fiber Propeller 6045 Self-Locking,6.0,4.5,6.78,Carbon Fiber,175.12,10002.3,0.0337686,5.65798,0.253503,1.01401
46,300,7.4,2S1P,25,13.5,51.5,19.0,20.0,DYS D2225-15,3.175,22.0,25.0,,1600,32.0,,0.203,T-Motor 5143 Ultra-Light,5.1,4.3,3.7,Poly Carbonate,162.8,10769.2,0.0196759,3.29672,0.170989,0.683955
47,300,7.4,2S1P,25,13.5,51.5,19.0,20.0,DYS D2225-15,3.175,22.0,25.0,,1600,32.0,,0.203,Gemfan 3052 - Flash,3.0,5.2,1.6,Poly Carbonate,154.4,11520.2,0.00587644,0.984608,0.0585991,0.234397
48,300,7.4,2S1P,25,13.5,51.5,19.0,20.0,DYS D2225-??,3.175,22.0,25.0,,1350,32.0,,,6030 Carbon Nylon,6.0,3.0,2.22,Carbon Nylon,156.88,,,,,
49,300,7.4,2S1P,25,13.5,51.5,19.0,20.0,DYS D2225-??,3.175,22.0,25.0,,1350,32.0,,,Gemfan 5040 R,5.0,4.0,3.0,ABS,160.0,,,,,
50,300,7.4,2S1P,25,13.5,51.5,19.0,20.0,DYS D2225-??,3.175,22.0,25.0,,1350,32.0,,,6045 plastic,6.0,4.5,6.0,Plastic,172.0,,,,,
51,300,7.4,2S1P,25,13.5,51.5,19.0,20.0,DYS D2225-??,3.175,22.0,25.0,,1350,32.0,,,Gemfan Hurricane 51499,5.1,4.99,5.2,Poly Carbonate,168.8,,,,,
52,300,7.4,2S1P,25,13.5,51.5,19.0,20.0,DYS D2225-??,3.175,22.0,25.0,,1350,32.0,,,Carbon Fiber 5030,5.0,3.0,2.18,Carbon Fiber,156.72,,,,,
53,300,7.4,2S1P,25,13.5,51.5,19.0,20.0,DYS D2225-??,3.175,22.0,25.0,,1350,32.0,,,DALPROP 6040,6.0,4.0,4.32,Nylon,165.28,,,,,
54,300,7.4,2S1P,25,13.5,51.5,19.0,20.0,DYS D2225-??,3.175,22.0,25.0,,1350,32.0,,,Gemfan 6030 Thick hub,6.0,3.0,5.23,Plastic,168.92,,,,,
55,300,7.4,2S1P,25,13.5,51.5,19.0,20.0,DYS D2225-??,3.175,22.0,25.0,,1350,32.0,,,Gemfan 5050 3-Blades BN,5.0,5.0,5.0,Poly Carbonate,168.0,,,,,
56,300,7.4,2S1P,25,13.5,51.5,19.0,20.0,DYS D2225-??,3.175,22.0,25.0,,1350,32.0,,,KingKong 6040,6.0,4.0,3.38,Plastic,161.52,,,,,
57,300,7.4,2S1P,25,13.5,51.5,19.0,20.0,DYS D2225-??,3.175,22.0,25.0,,1350,32.0,,,Quanum Carbon Fiber Propeller 6045 Self-Locking,6.0,4.5,6.78,Carbon Fiber,175.12,,,,,
58,300,7.4,2S1P,25,13.5,51.5,19.0,20.0,DYS D2225-??,3.175,22.0,25.0,,1350,32.0,,,T-Motor 5143 Ultra-Light,5.1,4.3,3.7,Poly Carbonate,162.8,,,,,
59,300,7.4,2S1P,25,13.5,51.5,19.0,20.0,DYS D2225-??,3.175,22.0,25.0,,1350,32.0,,,Gemfan 3052 - Flash,3.0,5.2,1.6,Poly Carbonate,154.4,,,,,
240,300,7.4,2S1P,25,13.5,51.5,19.0,20.0,DYS D2822-8,3.175,28.0,22.0,,2600,38.0,,0.044,6030 Carbon Nylon,6.0,3.0,2.22,Carbon Nylon,180.88,18133.7,0.0355182,9.6706,0.405512,1.62205
241,300,7.4,2S1P,25,13.5,51.5,19.0,20.0,DYS D2822-8,3.175,28.0,22.0,,2600,38.0,,0.044,Gemfan 5040 R,5.0,4.0,3.0,ABS,184.0,18010.8,0.0394635,10.7448,0.378679,1.51471
242,300,7.4,2S1P,25,13.5,51.5,19.0,20.0,DYS D2822-8,3.175,28.0,22.0,,2600,38.0,,0.044,6045 plastic,6.0,4.5,6.0,Plastic,196.0,16565.3,0.0858711,23.3803,0.654471,2.61789
243,300,7.4,2S1P,25,13.5,51.5,19.0,20.0,DYS D2822-8,3.175,28.0,22.0,,2600,38.0,,0.044,Gemfan Hurricane 51499,5.1,4.99,5.2,Poly Carbonate,192.8,17116.6,0.0681727,18.5615,0.518437,2.07375
244,300,7.4,2S1P,25,13.5,51.5,19.0,20.0,DYS D2822-8,3.175,28.0,22.0,,2600,38.0,,0.044,Carbon Fiber 5030,5.0,3.0,2.18,Carbon Fiber,180.72,18619.5,0.0199209,5.4239,0.254394,1.01758
245,300,7.4,2S1P,25,13.5,51.5,19.0,20.0,DYS D2822-8,3.175,28.0,22.0,,2600,38.0,,0.044,DALPROP 6040,6.0,4.0,4.32,Nylon,189.28,17140.1,0.0674169,18.3557,0.57796,2.31184
246,300,7.4,2S1P,25,13.5,51.5,19.0,20.0,DYS D2822-8,3.175,28.0,22.0,,2600,38.0,,0.044,Gemfan 6030 Thick hub,6.0,3.0,5.23,Plastic,192.92,18133.7,0.0355182,9.6706,0.405512,1.62205
247,300,7.4,2S1P,25,13.5,51.5,19.0,20.0,DYS D2822-8,3.175,28.0,22.0,,2600,38.0,,0.044,Gemfan 5050 3-Blades BN,5.0,5.0,5.0,Poly Carbonate,192.0,17223.1,0.0647533,17.6305,0.497523,1.99009
248,300,7.4,2S1P,25,13.5,51.5,19.0,20.0,DYS D2822-8,3.175,28.0,22.0,,2600,38.0,,0.044,KingKong 6040,6.0,4.0,3.38,Plastic,185.52,17140.1,0.0674169,18.3557,0.57796,2.31184
249,300,7.4,2S1P,25,13.5,51.5,19.0,20.0,DYS D2822-8,3.175,28.0,22.0,,2600,38.0,,0.044,Quanum Carbon Fiber Propeller 6045 Self-Locking,6.0,4.5,6.78,Carbon Fiber,199.12,16565.3,0.0858711,23.3803,0.654471,2.61789
250,300,7.4,2S1P,25,13.5,51.5,19.0,20.0,DYS D2822-8,3.175,28.0,22.0,,2600,38.0,,0.044,T-Motor 5143 Ultra-Light,5.1,4.3,3.7,Poly Carbonate,186.8,17702.9,0.0493486,13.4362,0.435296,1.74118
251,300,7.4,2S1P,25,13.5,51.5,19.0,20.0,DYS D2822-8,3.175,28.0,22.0,,2600,38.0,,0.044,Gemfan 3052 - Flash,3.0,5.2,1.6,Poly Carbonate,178.4,18787.8,0.0145216,3.95321,0.146971,0.587883
252,300,7.4,2S1P,25,13.5,51.5,19.0,20.0,DYS D2822-12,3.175,28.0,22.0,,1800,38.0,,0.091,6030 Carbon Nylon,6.0,3.0,2.22,Carbon Nylon,180.88,12748.6,0.0185078,3.48864,0.209082,0.836329
253,300,7.4,2S1P,25,13.5,51.5,19.0,20.0,DYS D2822-12,3.175,28.0,22.0,,1800,38.0,,0.091,Gemfan 5040 R,5.0,4.0,3.0,ABS,184.0,12683.1,0.0206267,3.88804,0.195855,0.783421
254,300,7.4,2S1P,25,13.5,51.5,19.0,20.0,DYS D2822-12,3.175,28.0,22.0,,1800,38.0,,0.091,6045 plastic,6.0,4.5,6.0,Plastic,196.0,11885.4,0.0464629,8.75805,0.35061,1.40244
255,300,7.4,2S1P,25,13.5,51.5,19.0,20.0,DYS D2822-12,3.175,28.0,22.0,,1800,38.0,,0.091,Gemfan Hurricane 51499,5.1,4.99,5.2,Poly Carbonate,192.8,12195.7,0.0364143,6.86392,0.27412,1.09648
256,300,7.4,2S1P,25,13.5,51.5,19.0,20.0,DYS D2822-12,3.175,28.0,22.0,,1800,38.0,,0.091,Carbon Fiber 5030,5.0,3.0,2.18,Carbon Fiber,180.72,13003.4,0.0102536,1.93275,0.129537,0.518149
257,300,7.4,2S1P,25,13.5,51.5,19.0,20.0,DYS D2822-12,3.175,28.0,22.0,,1800,38.0,,0.091,DALPROP 6040,6.0,4.0,4.32,Nylon,189.28,12208.8,0.0359904,6.78403,0.305419,1.22167
258,300,7.4,2S1P,25,13.5,51.5,19.0,20.0,DYS D2822-12,3.175,28.0,22.0,,1800,38.0,,0.091,Gemfan 6030 Thick hub,6.0,3.0,5.23,Plastic,192.92,12748.6,0.0185078,3.48864,0.209082,0.836329
259,300,7.4,2S1P,25,13.5,51.5,19.0,20.0,DYS D2822-12,3.175,28.0,22.0,,1800,38.0,,0.091,Gemfan 5050 3-Blades BN,5.0,5.0,5.0,Poly Carbonate,192.0,12254.8,0.0345003,6.50315,0.262385,1.04954
260,300,7.4,2S1P,25,13.5,51.5,19.0,20.0,DYS D2822-12,3.175,28.0,22.0,,1800,38.0,,0.091,KingKong 6040,6.0,4.0,3.38,Plastic,185.52,12208.8,0.0359904,6.78403,0.305419,1.22167
261,300,7.4,2S1P,25,13.5,51.5,19.0,20.0,DYS D2822-12,3.175,28.0,22.0,,1800,38.0,,0.091,Quanum Carbon Fiber Propeller 6045 Self-Locking,6.0,4.5,6.78,Carbon Fiber,199.12,11885.4,0.0464629,8.75805,0.35061,1.40244
262,300,7.4,2S1P,25,13.5,51.5,19.0,20.0,DYS D2822-12,3.175,28.0,22.0,,1800,38.0,,0.091,T-Motor 5143 Ultra-Light,5.1,4.3,3.7,Poly Carbonate,186.8,12517.6,0.0259898,4.89896,0.226881,0.907522
263,300,7.4,2S1P,25,13.5,51.5,19.0,20.0,DYS D2822-12,3.175,28.0,22.0,,1800,38.0,,0.091,Gemfan 3052 - Flash,3.0,5.2,1.6,Poly Carbonate,178.4,13090.2,0.00744326,1.40302,0.0745083,0.298033
264,300,7.4,2S1P,25,13.5,51.5,19.0,20.0,DYS D2822-14,3.175,28.0,22.0,,1450,38.0,,0.112,6030 Carbon Nylon,6.0,3.0,2.22,Carbon Nylon,180.88,10416,0.0127349,1.93372,0.142996,0.571985
265,300,7.4,2S1P,25,13.5,51.5,19.0,20.0,DYS D2822-14,3.175,28.0,22.0,,1450,38.0,,0.112,Gemfan 5040 R,5.0,4.0,3.0,ABS,184.0,10379,0.0142346,2.16144,0.134351,0.537403
266,300,7.4,2S1P,25,13.5,51.5,19.0,20.0,DYS D2822-14,3.175,28.0,22.0,,1450,38.0,,0.112,6045 plastic,6.0,4.5,6.0,Plastic,196.0,9911.25,0.0332022,5.04154,0.249183,0.99673
267,300,7.4,2S1P,25,13.5,51.5,19.0,20.0,DYS D2822-14,3.175,28.0,22.0,,1450,38.0,,0.112,Gemfan Hurricane 51499,5.1,4.99,5.2,Poly Carbonate,192.8,10096.8,0.0256763,3.89878,0.192194,0.768778
268,300,7.4,2S1P,25,13.5,51.5,19.0,20.0,DYS D2822-14,3.175,28.0,22.0,,1450,38.0,,0.112,Carbon Fiber 5030,5.0,3.0,2.18,Carbon Fiber,180.72,10558,0.00697423,1.05899,0.0875593,0.350237
269,300,7.4,2S1P,25,13.5,51.5,19.0,20.0,DYS D2822-14,3.175,28.0,22.0,,1450,38.0,,0.112,DALPROP 6040,6.0,4.0,4.32,Nylon,189.28,10104.6,0.025363,3.85121,0.214015,0.856061
270,300,7.4,2S1P,25,13.5,51.5,19.0,20.0,DYS D2822-14,3.175,28.0,22.0,,1450,38.0,,0.112,Gemfan 6030 Thick hub,6.0,3.0,5.23,Plastic,192.92,10416,0.0127349,1.93372,0.142996,0.571985
271,300,7.4,2S1P,25,13.5,51.5,19.0,20.0,DYS D2822-14,3.175,28.0,22.0,,1450,38.0,,0.112,Gemfan 5050 3-Blades BN,5.0,5.0,5.0,Poly Carbonate,192.0,10131.7,0.0242642,3.68436,0.183487,0.733947
272,300,7.4,2S1P,25,13.5,51.5,19.0,20.0,DYS D2822-14,3.175,28.0,22.0,,1450,38.0,,0.112,KingKong 6040,6.0,4.0,3.38,Plastic,185.52,10104.6,0.025363,3.85121,0.214015,0.856061
273,300,7.4,2S1P,25,13.5,51.5,19.0,20.0,DYS D2822-14,3.175,28.0,22.0,,1450,38.0,,0.112,Quanum Carbon Fiber Propeller 6045 Self-Locking,6.0,4.5,6.78,Carbon Fiber,199.12,9911.25,0.0332022,5.04154,0.249183,0.99673
274,300,7.4,2S1P,25,13.5,51.5,19.0,20.0,DYS D2822-14,3.175,28.0,22.0,,1450,38.0,,0.112,T-Motor 5143 Ultra-Light,5.1,4.3,3.7,Poly Carbonate,186.8,10284.4,0.0180687,2.74361,0.156805,0.627221
275,300,7.4,2S1P,25,13.5,51.5,19.0,20.0,DYS D2822-14,3.175,28.0,22.0,,1450,38.0,,0.112,Gemfan 3052 - Flash,3.0,5.2,1.6,Poly Carbonate,178.4,10605.7,0.0050426,0.765682,0.0501599,0.20064
276,300,7.4,2S1P,25,13.5,51.5,19.0,20.0,DYS D2822-17,3.175,28.0,22.0,,1100,38.0,,0.192,6030 Carbon Nylon,6.0,3.0,2.22,Carbon Nylon,180.88,7951.96,0.00772911,0.89033,0.0860878,0.344351
277,300,7.4,2S1P,25,13.5,51.5,19.0,20.0,DYS D2822-17,3.175,28.0,22.0,,1100,38.0,,0.192,Gemfan 5040 R,5.0,4.0,3.0,ABS,184.0,7929.53,0.00865104,0.996528,0.0809943,0.323977
278,300,7.4,2S1P,25,13.5,51.5,19.0,20.0,DYS D2822-17,3.175,28.0,22.0,,1100,38.0,,0.192,6045 plastic,6.0,4.5,6.0,Plastic,196.0,7640.82,0.0205181,2.36352,0.152792,0.611167
279,300,7.4,2S1P,25,13.5,51.5,19.0,20.0,DYS D2822-17,3.175,28.0,22.0,,1100,38.0,,0.192,Gemfan Hurricane 51499,5.1,4.99,5.2,Poly Carbonate,192.8,7756.48,0.0157641,1.8159,0.117069,0.468276
280,300,7.4,2S1P,25,13.5,51.5,19.0,20.0,DYS D2822-17,3.175,28.0,22.0,,1100,38.0,,0.192,Carbon Fiber 5030,5.0,3.0,2.18,Carbon Fiber,180.72,8037.56,0.00421065,0.485032,0.0524325,0.20973
281,300,7.4,2S1P,25,13.5,51.5,19.0,20.0,DYS D2822-17,3.175,28.0,22.0,,1100,38.0,,0.192,DALPROP 6040,6.0,4.0,4.32,Nylon,189.28,7761.27,0.0155675,1.79325,0.130324,0.521297
282,300,7.4,2S1P,25,13.5,51.5,19.0,20.0,DYS D2822-17,3.175,28.0,22.0,,1100,38.0,,0.192,Gemfan 6030 Thick hub,6.0,3.0,5.23,Plastic,192.92,7951.96,0.00772911,0.89033,0.0860878,0.344351
[...]
91932,7000,3.7,1S2P,50,19.0,93.0,47.0,147.0,TMOTOR F0802,1.0,10.6,14.7,,25000,2.04,,0.18,6030 Carbon Nylon,6.0,3.0,2.22,Carbon Nylon,164.04,7654.04,0.00720195,18.8547,0.0801243,0.320497
91933,7000,3.7,1S2P,50,19.0,93.0,47.0,147.0,TMOTOR F0802,1.0,10.6,14.7,,25000,2.04,,0.18,Gemfan 5040 R,5.0,4.0,3.0,ABS,167.16,7202.08,0.00724031,18.9551,0.0675912,0.270365
91934,7000,3.7,1S2P,50,19.0,93.0,47.0,147.0,TMOTOR F0802,1.0,10.6,14.7,,25000,2.04,,0.18,6045 plastic,6.0,4.5,6.0,Plastic,179.16,4427.16,0.00747585,19.5717,0.0547661,0.219064
91935,7000,3.7,1S2P,50,19.0,93.0,47.0,147.0,TMOTOR F0802,1.0,10.6,14.7,,25000,2.04,,0.18,Gemfan Hurricane 51499,5.1,4.99,5.2,Poly Carbonate,175.96,5159.01,0.00741373,19.4091,0.0543872,0.217549
91936,7000,3.7,1S2P,50,19.0,93.0,47.0,147.0,TMOTOR F0802,1.0,10.6,14.7,,25000,2.04,,0.18,Carbon Fiber 5030,5.0,3.0,2.18,Carbon Fiber,163.88,10543.6,0.00695667,18.2125,0.0873352,0.349341
91937,7000,3.7,1S2P,50,19.0,93.0,47.0,147.0,TMOTOR F0802,1.0,10.6,14.7,,25000,2.04,,0.18,DALPROP 6040,6.0,4.0,4.32,Nylon,172.44,5196.14,0.00741058,19.4009,0.0612959,0.245183
91938,7000,3.7,1S2P,50,19.0,93.0,47.0,147.0,TMOTOR F0802,1.0,10.6,14.7,,25000,2.04,,0.18,Gemfan 6030 Thick hub,6.0,3.0,5.23,Plastic,176.08,7654.04,0.00720195,18.8547,0.0801243,0.320497
91939,7000,3.7,1S2P,50,19.0,93.0,47.0,147.0,TMOTOR F0802,1.0,10.6,14.7,,25000,2.04,,0.18,Gemfan 5050 3-Blades BN,5.0,5.0,5.0,Poly Carbonate,175.16,5331.82,0.00739906,19.3707,0.0548847,0.219539
91940,7000,3.7,1S2P,50,19.0,93.0,47.0,147.0,TMOTOR F0802,1.0,10.6,14.7,,25000,2.04,,0.18,KingKong 6040,6.0,4.0,3.38,Plastic,168.68,5196.14,0.00741058,19.4009,0.0612959,0.245183
91941,7000,3.7,1S2P,50,19.0,93.0,47.0,147.0,TMOTOR F0802,1.0,10.6,14.7,,25000,2.04,,0.18,Quanum Carbon Fiber Propeller 6045 Self-Locking,6.0,4.5,6.78,Carbon Fiber,182.28,4427.16,0.00747585,19.5717,0.0547661,0.219064
91942,7000,3.7,1S2P,50,19.0,93.0,47.0,147.0,TMOTOR F0802,1.0,10.6,14.7,,25000,2.04,,0.18,T-Motor 5143 Ultra-Light,5.1,4.3,3.7,Poly Carbonate,169.96,6308.71,0.00731614,19.1536,0.0625675,0.25027
91943,7000,3.7,1S2P,50,19.0,93.0,47.0,147.0,TMOTOR F0802,1.0,10.6,14.7,,25000,2.04,,0.18,Gemfan 3052 - Flash,3.0,5.2,1.6,Poly Carbonate,161.56,12460.1,0.006794,17.7867,0.0679085,0.271634
91944,7000,3.7,1S2P,50,19.0,93.0,47.0,147.0,TMOTOR F0803,1.0,10.6,15.7,,22000,2.47,,0.122,6030 Carbon Nylon,6.0,3.0,2.22,Carbon Nylon,165.76,9887.34,0.0115651,26.6441,0.129658,0.518632
91945,7000,3.7,1S2P,50,19.0,93.0,47.0,147.0,TMOTOR F0803,1.0,10.6,15.7,,22000,2.47,,0.122,Gemfan 5040 R,5.0,4.0,3.0,ABS,168.88,9316.76,0.0116574,26.8566,0.10967,0.43868
91946,7000,3.7,1S2P,50,19.0,93.0,47.0,147.0,TMOTOR F0803,1.0,10.6,15.7,,22000,2.47,,0.122,6045 plastic,6.0,4.5,6.0,Plastic,180.88,5776.6,0.0122299,28.1756,0.0903109,0.361243
91947,7000,3.7,1S2P,50,19.0,93.0,47.0,147.0,TMOTOR F0803,1.0,10.6,15.7,,22000,2.47,,0.122,Gemfan Hurricane 51499,5.1,4.99,5.2,Poly Carbonate,177.68,6716.39,0.0120779,27.8255,0.0893076,0.35723
91948,7000,3.7,1S2P,50,19.0,93.0,47.0,147.0,TMOTOR F0803,1.0,10.6,15.7,,22000,2.47,,0.122,Carbon Fiber 5030,5.0,3.0,2.18,Carbon Fiber,165.6,13494.7,0.0109817,25.3,0.138891,0.555563
91949,7000,3.7,1S2P,50,19.0,93.0,47.0,147.0,TMOTOR F0803,1.0,10.6,15.7,,22000,2.47,,0.122,DALPROP 6040,6.0,4.0,4.32,Nylon,174.16,,,,,
91950,7000,3.7,1S2P,50,19.0,93.0,47.0,147.0,TMOTOR F0803,1.0,10.6,15.7,,22000,2.47,,0.122,Gemfan 6030 Thick hub,6.0,3.0,5.23,Plastic,177.8,9887.34,0.0115651,26.6441,0.129658,0.518632
91951,7000,3.7,1S2P,50,19.0,93.0,47.0,147.0,TMOTOR F0803,1.0,10.6,15.7,,22000,2.47,,0.122,Gemfan 5050 3-Blades BN,5.0,5.0,5.0,Poly Carbonate,176.88,,,,,
91952,7000,3.7,1S2P,50,19.0,93.0,47.0,147.0,TMOTOR F0803,1.0,10.6,15.7,,22000,2.47,,0.122,KingKong 6040,6.0,4.0,3.38,Plastic,170.4,,,,,
91953,7000,3.7,1S2P,50,19.0,93.0,47.0,147.0,TMOTOR F0803,1.0,10.6,15.7,,22000,2.47,,0.122,Quanum Carbon Fiber Propeller 6045 Self-Locking,6.0,4.5,6.78,Carbon Fiber,184.0,5776.6,0.0122299,28.1756,0.0903109,0.361243
91954,7000,3.7,1S2P,50,19.0,93.0,47.0,147.0,TMOTOR F0803,1.0,10.6,15.7,,22000,2.47,,0.122,T-Motor 5143 Ultra-Light,5.1,4.3,3.7,Poly Carbonate,171.68,8183.94,0.0118406,27.2787,0.102054,0.408216
91955,7000,3.7,1S2P,50,19.0,93.0,47.0,147.0,TMOTOR F0803,1.0,10.6,15.7,,22000,2.47,,0.122,Gemfan 3052 - Flash,3.0,5.2,1.6,Poly Carbonate,163.28,,,,,
92016,7000,3.7,1S2P,50,19.0,93.0,47.0,147.0,TMOTOR F1103,1.5,14.4,14.0,,8000,5.3,,0.163,6030 Carbon Nylon,6.0,3.0,2.22,Carbon Nylon,177.08,11873.5,0.0162265,13.5939,0.18292,0.73168
92017,7000,3.7,1S2P,50,19.0,93.0,47.0,147.0,TMOTOR F1103,1.5,14.4,14.0,,8000,5.3,,0.163,Gemfan 5040 R,5.0,4.0,3.0,ABS,180.2,11325.3,0.0167284,14.0143,0.158301,0.633205
92018,7000,3.7,1S2P,50,19.0,93.0,47.0,147.0,TMOTOR F1103,1.5,14.4,14.0,,8000,5.3,,0.163,6045 plastic,6.0,4.5,6.0,Plastic,192.2,7569.7,0.0201662,16.8944,0.150129,0.600515
92019,7000,3.7,1S2P,50,19.0,93.0,47.0,147.0,TMOTOR F1103,1.5,14.4,14.0,,8000,5.3,,0.163,Gemfan Hurricane 51499,5.1,4.99,5.2,Poly Carbonate,189.0,8628.25,0.0191974,16.0826,0.143023,0.572094
92020,7000,3.7,1S2P,50,19.0,93.0,47.0,147.0,TMOTOR F1103,1.5,14.4,14.0,,8000,5.3,,0.163,Carbon Fiber 5030,5.0,3.0,2.18,Carbon Fiber,176.92,15003.8,0.0133611,11.1934,0.169522,0.67809
92021,7000,3.7,1S2P,50,19.0,93.0,47.0,147.0,TMOTOR F1103,1.5,14.4,14.0,,8000,5.3,,0.163,DALPROP 6040,6.0,4.0,4.32,Nylon,185.48,8680.53,0.0191494,16.0425,0.160849,0.643397
92022,7000,3.7,1S2P,50,19.0,93.0,47.0,147.0,TMOTOR F1103,1.5,14.4,14.0,,8000,5.3,,0.163,Gemfan 6030 Thick hub,6.0,3.0,5.23,Plastic,189.12,11873.5,0.0162265,13.5939,0.18292,0.73168
92023,7000,3.7,1S2P,50,19.0,93.0,47.0,147.0,TMOTOR F1103,1.5,14.4,14.0,,8000,5.3,,0.163,Gemfan 5050 3-Blades BN,5.0,5.0,5.0,Poly Carbonate,188.2,8870.78,0.0189752,15.8966,0.14292,0.571681
92024,7000,3.7,1S2P,50,19.0,93.0,47.0,147.0,TMOTOR F1103,1.5,14.4,14.0,,8000,5.3,,0.163,KingKong 6040,6.0,4.0,3.38,Plastic,181.72,8680.53,0.0191494,16.0425,0.160849,0.643397
92025,7000,3.7,1S2P,50,19.0,93.0,47.0,147.0,TMOTOR F1103,1.5,14.4,14.0,,8000,5.3,,0.163,Quanum Carbon Fiber Propeller 6045 Self-Locking,6.0,4.5,6.78,Carbon Fiber,195.32,7569.7,0.0201662,16.8944,0.150129,0.600515
92026,7000,3.7,1S2P,50,19.0,93.0,47.0,147.0,TMOTOR F1103,1.5,14.4,14.0,,8000,5.3,,0.163,T-Motor 5143 Ultra-Light,5.1,4.3,3.7,Poly Carbonate,183.0,10191.1,0.0177666,14.8841,0.154141,0.616565
92027,7000,3.7,1S2P,50,19.0,93.0,47.0,147.0,TMOTOR F1103,1.5,14.4,14.0,,8000,5.3,,0.163,Gemfan 3052 - Flash,3.0,5.2,1.6,Poly Carbonate,174.6,16758.1,0.0117552,9.84805,0.118547,0.474189
92028,7000,3.7,1S2P,50,19.0,93.0,47.0,147.0,TMOTOR F15,1.5,14.4,13.3,,4500,7.8,,0.197,6030 Carbon Nylon,6.0,3.0,2.22,Carbon Nylon,187.08,10881.6,0.0138081,6.50692,0.155251,0.621002
92029,7000,3.7,1S2P,50,19.0,93.0,47.0,147.0,TMOTOR F15,1.5,14.4,13.3,,4500,7.8,,0.197,Gemfan 5040 R,5.0,4.0,3.0,ABS,190.2,10536,0.0146355,6.89682,0.138196,0.552786
92030,7000,3.7,1S2P,50,19.0,93.0,47.0,147.0,TMOTOR F15,1.5,14.4,13.3,,4500,7.8,,0.197,6045 plastic,6.0,4.5,6.0,Plastic,202.2,7782.38,0.0212269,10.003,0.158157,0.632627
92031,7000,3.7,1S2P,50,19.0,93.0,47.0,147.0,TMOTOR F15,1.5,14.4,13.3,,4500,7.8,,0.197,Gemfan Hurricane 51499,5.1,4.99,5.2,Poly Carbonate,199.0,8628.95,0.0192005,9.048,0.143045,0.57218
92032,7000,3.7,1S2P,50,19.0,93.0,47.0,147.0,TMOTOR F15,1.5,14.4,13.3,,4500,7.8,,0.197,Carbon Fiber 5030,5.0,3.0,2.18,Carbon Fiber,186.92,12605.7,0.00968099,4.56206,0.12219,0.488759
92033,7000,3.7,1S2P,50,19.0,93.0,47.0,147.0,TMOTOR F15,1.5,14.4,13.3,,4500,7.8,,0.197,DALPROP 6040,6.0,4.0,4.32,Nylon,195.48,8669.35,0.0191037,9.00243,0.16046,0.64184
92034,7000,3.7,1S2P,50,19.0,93.0,47.0,147.0,TMOTOR F15,1.5,14.4,13.3,,4500,7.8,,0.197,Gemfan 6030 Thick hub,6.0,3.0,5.23,Plastic,199.12,10881.6,0.0138081,6.50692,0.155251,0.621002
92035,7000,3.7,1S2P,50,19.0,93.0,47.0,147.0,TMOTOR F15,1.5,14.4,13.3,,4500,7.8,,0.197,Gemfan 5050 3-Blades BN,5.0,5.0,5.0,Poly Carbonate,198.2,8815.01,0.0187551,8.83812,0.141235,0.564942
92036,7000,3.7,1S2P,50,19.0,93.0,47.0,147.0,TMOTOR F15,1.5,14.4,13.3,,4500,7.8,,0.197,KingKong 6040,6.0,4.0,3.38,Plastic,191.72,8669.35,0.0191037,9.00243,0.16046,0.64184
92037,7000,3.7,1S2P,50,19.0,93.0,47.0,147.0,TMOTOR F15,1.5,14.4,13.3,,4500,7.8,,0.197,Quanum Carbon Fiber Propeller 6045 Self-Locking,6.0,4.5,6.78,Carbon Fiber,205.32,7782.38,0.0212269,10.003,0.158157,0.632627
92038,7000,3.7,1S2P,50,19.0,93.0,47.0,147.0,TMOTOR F15,1.5,14.4,13.3,,4500,7.8,,0.197,T-Motor 5143 Ultra-Light,5.1,4.3,3.7,Poly Carbonate,193.0,9776.68,0.0164531,7.75332,0.142568,0.57027
92039,7000,3.7,1S2P,50,19.0,93.0,47.0,147.0,TMOTOR F15,1.5,14.4,13.3,,4500,7.8,,0.197,Gemfan 3052 - Flash,3.0,5.2,1.6,Poly Carbonate,184.6,13402.1,0.00777469,3.66374,0.0778809,0.311524